%OpenBCI Raw EEG Data
%Number of channels = 16
%Sample Rate = 125.0 Hz
%First Column = SampleIndex
%Last Column = Timestamp 
%Other Columns = EEG data in microvolts followed by Accel Data (in G) interleaved with Aux Data
80, 50450.79, 86649.64, -30955.80, 102799.67, 25509.87, -17538.59, -42454.23, -28727.00, -7984.76, 39522.55, -56932.59, -24183.13, -21867.47, 1572.22, -441.22, 74068.41, 0.000, 0.000, 0.000, 19:25:40.385, 1579559140385
81, 63273.11, 96720.98, -32549.17, 91599.37, 11492.53, -33611.43, -52113.05, -37352.09, -14472.51, 39118.77, -63719.21, -28064.34, -26809.24, -2885.19, -5912.80, -51032.00, -0.010, -0.310, 0.966, 19:25:40.624, 1579559140624
82, 47096.24, 85926.56, -26722.98, 103256.61, 22343.41, -19013.24, -45013.42, -27768.15, -3038.63, 41360.38, -53704.42, -19628.74, -17526.43, 5961.57, 4830.95, 183314.19, 0.000, 0.000, 0.000, 19:25:40.624, 1579559140624
83, 58909.94, 92591.85, -34031.80, 96611.27, 19435.67, -25923.78, -45896.29, -34701.89, -16249.36, 38065.98, -64444.23, -30932.60, -29454.41, -5979.09, -9077.27, -96095.20, 0.000, 0.000, 0.000, 19:25:40.624, 1579559140624
84, 54029.21, 92210.55, -27916.01, 96383.16, 13320.30, -29112.36, -51267.52, -32697.74, -6085.35, 41297.82, -57050.66, -21319.45, -19949.20, 3731.22, 2081.04, 122713.45, 0.000, 0.000, 0.000, 19:25:40.625, 1579559140625
85, 49207.83, 86284.93, -30910.83, 102940.80, 24964.84, -17972.50, -42668.09, -29013.12, -8065.07, 39847.73, -57257.70, -24863.95, -22881.81, 221.71, -1553.49, 74405.11, 0.000, 0.000, 0.000, 19:25:40.625, 1579559140625
86, 62085.95, 96389.88, -33571.36, 91733.86, 10979.24, -33985.34, -52267.41, -37238.27, -14511.24, 39533.20, -64034.01, -28686.25, -27809.62, -4238.61, -6940.40, -51008.29, -0.014, -0.304, 0.966, 19:25:40.625, 1579559140625
87, 45832.52, 85408.02, -27112.17, 103424.91, 21890.13, -19329.52, -45144.35, -27441.30, -2955.93, 41301.20, -53955.37, -19941.87, -18477.54, 4678.44, 3997.63, 183358.64, 0.000, 0.000, 0.000, 19:25:40.626, 1579559140626
88, 57609.21, 92091.64, -34412.48, 96692.10, 19008.46, -26245.02, -45929.41, -34224.36, -16175.00, 38354.00, -64701.05, -31200.64, -30441.55, -7284.05, -9836.82, -95986.79, 0.000, 0.000, 0.000, 19:25:40.626, 1579559140626
89, 52883.67, 91781.02, -28622.10, 96266.57, 12871.83, -29465.79, -51459.68, -32372.30, -6078.65, 41105.01, -57349.59, -21342.38, -21016.83, 2377.11, 1362.50, 122618.49, 0.000, 0.000, 0.000, 19:25:40.626, 1579559140626
90, 48060.54, 85787.11, -31168.41, 102637.76, 24577.53, -18288.51, -42756.23, -29149.11, -7981.27, 39758.19, -57460.01, -24470.96, -23872.36, -1049.12, -2085.17, 74507.80, 0.000, 0.000, 0.000, 19:25:40.627, 1579559140627
91, 60997.98, 95947.48, -33963.77, 91383.88, 10699.82, -34221.39, -52345.04, -37291.79, -14440.08, 39600.63, -64213.95, -28202.71, -28815.64, -5507.04, -7443.44, -51867.76, -0.016, -0.304, 0.966, 19:25:40.627, 1579559140627
92, 44977.05, 84914.23, -27346.11, 103016.77, 21670.57, -19537.64, -45171.78, -27563.92, -2888.96, 41126.05, -54097.93, -19289.22, -19478.79, 3453.30, 3546.82, 183313.25, 0.000, 0.000, 0.000, 19:25:40.629, 1579559140629
93, 57009.91, 91481.69, -34497.55, 96238.45, 18878.35, -26333.28, -45972.08, -34388.05, -16039.21, 38546.27, -64758.63, -30139.11, -31379.50, -8455.62, -10232.45, -96245.29, 0.000, 0.000, 0.000, 19:25:40.632, 1579559140632
94, 52410.97, 90927.92, -28611.69, 95882.27, 12888.33, -29444.55, -51364.75, -32452.16, -5909.00, 41160.91, -57340.87, -19992.83, -21905.29, 1265.35, 1012.22, 122585.81, 0.000, 0.000, 0.000, 19:25:40.632, 1579559140632
95, 47941.29, 84990.02, -31231.11, 102210.34, 24570.71, -18332.81, -42674.95, -29309.84, -7804.80, 39796.45, -57434.37, -23165.19, -24771.72, -2158.33, -2480.66, 74686.98, 0.000, 0.000, 0.000, 19:25:40.633, 1579559140633
96, 61245.05, 95180.50, -33683.23, 90937.45, 10677.96, -34296.98, -52238.84, -37320.84, -14287.26, 39771.75, -64185.36, -26650.79, -29704.86, -6611.11, -7949.35, -52260.14, -0.016, -0.300, 0.970, 19:25:40.633, 1579559140633
97, 45294.87, 84171.39, -27282.67, 102463.27, 21544.46, -19702.68, -45124.68, -27571.95, -2772.20, 41445.00, -54094.28, -17863.51, -20360.31, 2344.54, 3038.16, 183364.88, 0.000, 0.000, 0.000, 19:25:40.634, 1579559140634
98, 57211.19, 90779.59, -34266.23, 95571.83, 18749.18, -26530.20, -45878.18, -33732.78, -15815.54, 38798.85, -64630.89, -28858.29, -32122.58, -9454.79, -10541.40, -96271.69, 0.000, 0.000, 0.000, 19:25:40.634, 1579559140634
99, 52626.13, 90310.48, -28163.67, 95125.96, 12618.70, -29836.98, -51262.74, -30433.78, -5815.50, 41280.65, -57310.05, -19337.66, -22707.58, 202.80, 674.33, 121974.67, 0.000, 0.000, 0.000, 19:25:40.634, 1579559140634
100, 47758.81, 84311.88, -31564.42, 101404.54, 24129.60, -18829.06, -42634.27, -26879.31, -7658.53, 39934.09, -57341.10, -22778.46, -25482.73, -3153.14, -2636.21, 74615.09, 0.000, 0.000, 0.000, 19:25:40.635, 1579559140635
101, 60515.98, 94439.34, -32938.78, 90143.55, 10257.10, -34728.80, -52120.69, -33608.28, -14220.54, 39573.27, -64147.80, -27143.67, -30441.04, -7645.01, -7973.83, -52941.22, -0.018, -0.302, 0.970, 19:25:40.635, 1579559140635
102, 44398.39, 83488.14, -27276.68, 101702.40, 20850.80, -20348.27, -45184.96, -24453.79, -2832.55, 40917.06, -54156.84, -18793.39, -21179.80, 1217.63, 2983.58, 183340.41, 0.000, 0.000, 0.000, 19:25:40.635, 1579559140635
103, 56302.39, 90122.21, -34003.93, 94884.88, 18003.48, -27153.77, -45958.74, -31383.55, -15893.63, 38512.99, -64682.88, -30049.55, -32919.94, -10368.79, -10647.68, -96996.66, 0.000, 0.000, 0.000, 19:25:40.636, 1579559140636
104, 51932.85, 89707.92, -27279.83, 94665.47, 11850.56, -30433.29, -51390.91, -29347.35, -6012.62, 40895.96, -57419.17, -20767.59, -23508.56, 384.29, 633.40, 120461.91, 0.000, 0.000, 0.000, 19:25:40.636, 1579559140636
105, 47299.38, 83685.30, -31325.50, 101185.36, 23476.33, -19261.30, -42734.97, -27479.64, -7887.71, 39723.00, -57399.57, -24009.13, -26122.79, -456.42, -2609.61, 73764.38, 0.000, 0.000, 0.000, 19:25:40.636, 1579559140636
106, 60380.69, 93865.27, -32299.54, 89762.88, 9821.20, -34993.09, -52241.64, -36773.60, -14386.45, 39653.00, -64067.90, -27847.66, -30107.35, -1657.31, -7816.02, -55383.08, -0.022, -0.292, 0.952, 19:25:40.636, 1579559140636
107, 44064.85, 82820.36, -26951.06, 101835.53, 21065.31, -19929.22, -45144.87, -27657.29, -2674.01, 40777.71, -53750.91, -18737.65, -19601.38, 11398.70, 3553.90, 183129.77, 0.000, 0.000, 0.000, 19:25:40.637, 1579559140637
108, 56252.45, 89524.03, -34007.26, 94984.02, 18598.21, -26295.57, -45861.06, -34914.41, -15721.28, 38696.86, -64318.10, -29600.53, -31473.89, -524.33, -10169.31, -98288.26, 0.000, 0.000, 0.000, 19:25:40.637, 1579559140637
109, 51944.04, 89269.60, -27281.09, 94582.21, 12726.52, -29421.51, -51424.32, -33081.39, -5848.60, 40738.42, -57107.68, -20403.39, -21723.55, 8605.89, 814.52, 120212.82, 0.000, 0.000, 0.000, 19:25:40.637, 1579559140637
110, 47145.44, 83412.44, -31581.70, 100871.88, 24575.41, -18206.21, -42663.02, -30005.83, -7688.49, 39699.31, -57064.63, -23581.25, -24125.94, 4753.43, -2611.98, 73718.29, 0.000, 0.000, 0.000, 19:25:40.638, 1579559140638
111, 60007.39, 94156.90, -32508.17, 89461.58, 10755.50, -34287.02, -52124.82, -38349.18, -14220.51, 39684.85, -63822.48, -27246.93, -28775.57, -54.38, -8007.65, -55604.84, -0.020, -0.300, 0.956, 19:25:40.638, 1579559140638
112, 43676.18, 83381.05, -27188.79, 101587.34, 21403.76, -20013.35, -45040.51, -28597.33, -2731.63, 40858.90, -53772.06, -18911.97, -19105.89, 8911.73, 3107.59, 183092.23, 0.000, 0.000, 0.000, 19:25:40.638, 1579559140638
113, 55797.33, 89916.08, -34341.62, 94981.37, 18532.46, -26928.67, -45813.52, -35459.52, -15916.65, 38743.04, -64434.27, -29606.90, -30759.75, -3255.44, -10580.31, -98610.08, 0.000, 0.000, 0.000, 19:25:40.639, 1579559140639
114, 51473.70, 89824.15, -27630.40, 94891.98, 12163.24, -30588.81, -51278.54, -33856.68, -5985.51, 41363.04, -57201.11, -19815.38, -21111.31, 6325.68, 778.76, 119626.69, 0.000, 0.000, 0.000, 19:25:40.639, 1579559140639
115, 46993.89, 84493.08, -31557.35, 101931.04, 23631.61, -19605.94, -42519.48, -30247.21, -7947.36, 40647.94, -57296.17, -23011.81, -23831.12, 2715.51, -2540.75, 72965.45, 0.000, 0.000, 0.000, 19:25:40.639, 1579559140639
116, 60422.62, 95296.62, -33218.82, 90864.35, 9448.86, -35931.19, -52244.21, -39478.14, -14495.24, 40292.53, -64097.87, -25861.01, -28641.64, -1872.99, -7837.82, -55612.48, -0.022, -0.296, 0.968, 19:25:40.640, 1579559140640
117, 44346.44, 86703.09, -27338.33, 103751.23, 20031.21, -21569.79, -45001.93, -29289.86, -2914.38, 41227.01, -53933.93, -17411.49, -19031.30, 7186.51, 3469.55, 183105.44, 0.000, 0.000, 0.000, 19:25:40.640, 1579559140640
118, 56791.02, 93729.65, -34796.75, 97903.56, 16993.99, -28471.99, -45878.16, -36187.92, -16155.39, 39251.18, -64632.05, -27788.45, -30980.12, -4965.98, -10324.56, -98560.26, 0.000, 0.000, 0.000, 19:25:40.640, 1579559140640
119, 52760.84, 94059.45, -28554.04, 98176.70, 10452.88, -32251.35, -51378.88, -35103.97, -6227.37, 40296.62, -57379.05, -17736.33, -21502.09, 4713.49, 932.49, 119559.59, 0.000, 0.000, 0.000, 19:25:40.641, 1579559140641
120, 48467.77, 82946.96, -31816.16, 105227.05, 21542.32, -21490.49, -42919.95, -31125.25, -8541.41, 39279.32, -57810.77, -21741.12, -24720.76, 861.41, -2769.27, 72778.98, 0.000, 0.000, 0.000, 19:25:40.641, 1579559140641
121, 61879.71, 93680.47, -34218.87, 93225.44, 7194.45, -38001.70, -52803.13, -40607.73, -14902.20, 38791.21, -64390.41, -24367.96, -29545.47, -3471.65, -7896.13, -56792.03, -0.020, -0.302, 0.968, 19:25:40.641, 1579559140641
122, 45897.81, 89404.13, -27577.96, 107215.62, 17882.63, -23432.00, -45282.66, -30050.13, -3324.46, 38638.10, -54026.80, -16703.86, -20037.76, 5672.85, 3469.77, 182939.14, 0.000, 0.000, 0.000, 19:25:40.641, 1579559140641
123, 59252.46, 90528.25, -35289.74, 101242.71, 14647.81, -30355.79, -46424.68, -37183.85, -16668.28, 37749.82, -64288.35, -27747.05, -32065.19, -6445.37, -10370.56, -99402.67, 0.000, 0.000, 0.000, 19:25:40.642, 1579559140642
124, 55807.97, 96049.11, -29136.04, 101444.20, 8526.83, -33650.75, -51541.73, -36217.31, -6273.02, 38382.59, -55947.04, -17590.02, -22056.28, 4262.03, 1494.73, 119663.48, 0.000, 0.000, 0.000, 19:25:40.642, 1579559140642
125, 52237.19, 90150.51, -31748.89, 110349.04, 20202.60, -22063.09, -42627.34, -31606.60, -8566.62, 37987.01, -55671.71, -22020.78, -25627.26, 1314.71, -2037.43, 73004.59, 0.000, 0.000, 0.000, 19:25:40.642, 1579559140642
126, 66249.23, 93099.80, -34639.84, 97817.80, 5876.61, -38449.85, -52962.43, -41897.76, -15259.20, 38907.46, -61891.29, -24577.60, -31433.32, -3214.54, -7411.17, -56501.07, -0.024, -0.304, 0.976, 19:25:40.643, 1579559140643
127, 50470.26, 86604.00, -27583.35, 110190.50, 16820.31, -23670.83, -45459.96, -31015.57, -3812.34, 38159.88, -51310.89, -16273.41, -22313.57, 5820.66, 3908.67, 182953.97, 0.000, 0.000, 0.000, 19:25:40.643, 1579559140643
0, 63345.51, 87075.84, -35250.29, 102793.61, 12415.08, -30762.15, -46814.88, -38023.22, -17443.41, 38106.01, -61911.51, -26820.60, -34781.55, -6617.70, -10221.70, -99751.90, 0.000, 0.000, 0.000, 19:25:40.643, 1579559140643
1, 59354.27, 91743.70, -29229.04, 101721.00, 2344.32, -34592.61, -52406.10, -37475.58, -7364.43, 38202.04, -54131.45, -16237.33, -25314.49, 3174.13, 1224.27, 118728.41, 0.000, 0.000, 0.000, 19:25:40.644, 1579559140644
2, 55321.55, 87095.49, -31457.60, 109803.81, 8649.54, -23471.59, -43877.66, -32566.87, -9795.52, 38210.29, -54323.23, -20172.98, -28575.83, -748.40, -2497.83, 71857.75, 0.000, 0.000, 0.000, 19:25:40.644, 1579559140644
3, 68871.24, 93307.80, -34607.23, 97230.51, -7743.45, -40335.11, -54366.28, -42692.68, -16516.37, 38141.53, -60856.36, -22124.94, -33543.95, -5363.06, -7898.41, -57449.73, -0.016, -0.312, 0.974, 19:25:40.644, 1579559140644
4, 52506.05, 86987.94, -27467.70, 109803.57, 1648.93, -26115.58, -47176.20, -31881.21, -5212.69, 36709.32, -50563.45, -14499.89, -24173.10, 3503.88, 3291.20, 182813.19, 0.000, 0.000, 0.000, 19:25:40.644, 1579559140644
5, 64461.67, 89203.62, -34861.21, 102703.80, -2920.68, -33398.40, -48782.79, -38878.22, -18907.68, 36052.76, -61240.98, -25064.93, -36330.99, -8904.42, -10749.18, -100652.83, 0.000, 0.000, 0.000, 19:25:40.645, 1579559140645
6, 59472.54, 90701.61, -28582.90, 101574.93, -8656.79, -37454.93, -54479.71, -38360.40, -8986.54, 35348.32, -53536.27, -14971.26, -26654.83, 884.26, 721.27, 117984.10, 0.000, 0.000, 0.000, 19:25:40.646, 1579559140646
7, 54422.07, 84716.91, -31075.49, 109229.02, 4518.16, -26134.91, -45751.47, -33354.46, -11302.29, 34870.00, -53543.07, -19326.53, -29534.01, -2807.04, -2764.84, 71158.30, 0.000, 0.000, 0.000, 19:25:40.647, 1579559140647
8, 67291.47, 91676.03, -33748.50, 96632.82, -8152.80, -42686.15, -55997.93, -43357.02, -18012.96, 34874.46, -60018.95, -21743.06, -34320.88, -7344.58, -8099.36, -59601.24, -0.016, -0.312, 0.978, 19:25:40.647, 1579559140647
9, 50580.21, 85441.95, -26716.30, 109609.45, 4006.51, -28166.53, -48543.34, -32612.54, -6603.02, 34037.95, -49605.87, -14411.04, -24672.70, 1749.56, 3232.64, 182554.83, 0.000, 0.000, 0.000, 19:25:40.648, 1579559140648
10, 62522.21, 85549.58, -34218.31, 102563.03, 2004.64, -35124.31, -49936.99, -39561.00, -20398.98, 33667.80, -60407.06, -25281.90, -36823.04, -10690.93, -10948.04, -102189.20, 0.000, 0.000, 0.000, 19:25:40.648, 1579559140648
11, 57243.93, 87517.36, -27798.82, 101105.16, -3430.34, -39079.05, -55445.64, -38745.56, -10310.01, 33712.78, -52573.71, -15293.47, -26957.54, -704.86, 641.52, 117626.27, 0.000, 0.000, 0.000, 19:25:40.648, 1579559140648
12, 52404.22, 79798.20, -30577.34, 108875.45, 8934.06, -27679.17, -46648.02, -33972.06, -12914.05, 33483.49, -52907.02, -20100.83, -30145.77, -4666.80, -3192.81, 70740.90, 0.000, 0.000, 0.000, 19:25:40.875, 1579559140875
13, 65604.16, 79749.68, -32996.23, 94408.58, -4994.09, -44595.59, -57185.08, -43892.41, -19728.03, 33695.52, -59485.10, -22420.01, -35007.79, -9264.55, -8694.78, -60663.82, -0.026, -0.304, 0.976, 19:25:41.103, 1579559141103
14, 48793.27, 78012.73, -26172.53, 106493.59, 6418.84, -30134.91, -49648.32, -33052.98, -8327.14, 33100.41, -49057.41, -15048.49, -25347.50, -114.17, 2602.41, 182500.75, 0.000, 0.000, 0.000, 19:25:41.103, 1579559141103
15, 61237.45, 71512.10, -33707.48, 98269.06, 3427.86, -37388.16, -51319.43, -40256.50, -22613.86, 32989.45, -60323.55, -26256.39, -37927.07, -12981.04, -12083.22, -103066.46, 0.000, 0.000, 0.000, 19:25:41.104, 1579559141104
16, 56387.14, 69829.84, -26901.20, 94227.30, -2878.50, -41830.15, -57149.39, -39317.10, -12475.78, 33067.62, -52410.50, -15900.74, -27924.32, -2863.55, -488.79, 116057.77, 0.000, 0.000, 0.000, 19:25:41.104, 1579559141104
17, 51181.45, 67002.08, -30536.91, 101741.90, 9070.16, -30472.82, -48257.23, -34639.70, -15283.12, 32577.26, -52965.12, -20833.57, -31330.97, -6995.22, -4583.38, 69893.39, 0.000, 0.000, 0.000, 19:25:41.104, 1579559141104
18, 64041.99, 61398.59, -32460.90, 85905.22, -5595.00, -47767.42, -59099.33, -44586.27, -22110.23, 32849.40, -59588.32, -23403.91, -36242.41, -11608.45, -10172.77, -62846.62, -0.020, -0.302, 0.968, 19:25:41.105, 1579559141105
19, 46516.26, 69944.41, -25989.98, 98504.73, 5839.73, -32962.18, -51212.32, -33425.09, -9965.10, 32295.39, -48491.93, -15308.96, -25911.26, -1762.03, 1766.30, 182395.66, 0.000, 0.000, 0.000, 19:25:41.105, 1579559141105
20, 58406.05, 78000.99, -33795.28, 93904.55, 3370.87, -39151.54, -52035.98, -40195.25, -23158.26, 32226.01, -58797.47, -26149.97, -37562.71, -13684.47, -11933.55, -103603.30, 0.000, 0.000, 0.000, 19:25:41.105, 1579559141105
21, 53573.24, 88938.08, -27145.12, 95808.49, -2242.64, -42062.67, -57042.43, -38831.33, -12563.18, 32657.75, -50555.89, -16046.41, -27254.67, -3203.97, 125.13, 116028.55, 0.000, 0.000, 0.000, 19:25:41.106, 1579559141106
22, 49721.50, 88143.03, -30969.88, 107286.91, 10187.50, -29346.83, -47762.77, -34047.65, -14382.27, 32495.37, -50264.11, -20512.31, -29803.97, -6473.87, -2936.21, 70994.39, 0.000, 0.000, 0.000, 19:25:41.108, 1579559141108
23, 63092.96, 94718.55, -33118.98, 96662.59, -3394.20, -44829.11, -57651.72, -43375.05, -21020.18, 32972.51, -56785.41, -23444.81, -34570.55, -10917.53, -8205.66, -62467.94, -0.024, -0.298, 0.966, 19:25:41.111, 1579559141111
24, 46054.47, 90157.88, -26937.61, 110486.95, 7792.91, -29660.05, -50292.45, -32638.13, -9302.91, 32608.53, -46208.43, -15733.88, -24725.41, -1490.08, 3425.81, 182654.84, 0.000, 0.000, 0.000, 19:25:41.112, 1579559141112
25, 58559.91, 91555.29, -34593.91, 104436.58, 5476.62, -35638.58, -51264.62, -39379.86, -22782.06, 32531.64, -56867.02, -26654.77, -36698.25, -13685.32, -10456.12, -103158.75, 0.000, 0.000, 0.000, 19:25:41.112, 1579559141112
26, 53820.79, 93475.39, -28117.06, 103258.57, -511.30, -39155.09, -56841.42, -38246.54, -12744.38, 32871.03, -49191.88, -16604.06, -26932.42, -3667.21, 1108.58, 114861.37, 0.000, 0.000, 0.000, 19:25:41.112, 1579559141112
27, 49079.15, 88154.79, -31246.96, 111332.34, 11754.76, -27070.76, -47841.14, -33602.70, -14767.82, 32643.25, -49144.98, -20857.80, -29690.94, -7080.43, -2132.51, 70663.36, 0.000, 0.000, 0.000, 19:25:41.113, 1579559141113
28, 62483.50, 93331.94, -33677.46, 98286.09, -2047.51, -43214.14, -57911.09, -43034.17, -21588.39, 33057.71, -55824.84, -23512.87, -34610.20, -11633.64, -7581.04, -63439.59, -0.022, -0.302, 0.966, 19:25:41.113, 1579559141113
29, 45613.32, 88497.39, -26925.38, 110662.97, 9008.36, -28521.72, -50620.42, -32412.26, -9867.65, 32684.08, -45218.63, -15636.61, -24761.15, -2151.78, 4027.94, 182698.14, 0.000, 0.000, 0.000, 19:25:41.113, 1579559141113
30, 57977.54, 89632.77, -34482.95, 103797.43, 6550.31, -34851.93, -51595.20, -39093.69, -23374.98, 32721.63, -55888.57, -26344.97, -36760.86, -14340.25, -9936.89, -103291.12, 0.000, 0.000, 0.000, 19:25:41.114, 1579559141114
31, 53148.98, 91504.55, -28149.70, 102222.75, 354.95, -38697.57, -57203.92, -37695.32, -13445.09, 32919.36, -48273.71, -16195.45, -27055.78, -4376.69, 1474.10, 114378.08, 0.000, 0.000, 0.000, 19:25:41.114, 1579559141114
32, 47898.71, 86300.64, -30975.16, 110193.59, 12438.37, -26835.26, -48225.43, -33009.75, -15437.25, 32796.63, -48206.45, -20379.18, -29809.49, -7763.03, -1826.43, 70882.97, 0.000, 0.000, 0.000, 19:25:41.114, 1579559141114
33, 60840.95, 91616.02, -33637.59, 97254.67, -1527.16, -43142.26, -58296.25, -42154.16, -22265.40, 33210.54, -54890.45, -22800.63, -34771.80, -12328.44, -7381.17, -64664.46, -0.016, -0.302, 0.964, 19:25:41.115, 1579559141115
34, 43607.27, 86589.13, -26921.00, 109719.50, 9344.86, -28624.63, -51041.23, -31497.68, -10559.95, 32742.51, -44290.79, -14901.86, -24957.17, -2825.91, 4171.37, 182633.33, 0.000, 0.000, 0.000, 19:25:41.115, 1579559141115
35, 55816.71, 87662.45, -34506.73, 102882.59, 6720.32, -35080.37, -52057.64, -38348.13, -24058.46, 32843.94, -54977.76, -25598.49, -37017.64, -15029.18, -9855.91, -103740.50, 0.000, 0.000, 0.000, 19:25:41.115, 1579559141115
36, 50745.75, 89372.64, -28151.44, 101364.15, 426.76, -39008.78, -57662.38, -37056.31, -14078.54, 32982.50, -47312.52, -15365.64, -27320.38, -5017.34, 1561.52, 114354.49, 0.000, 0.000, 0.000, 19:25:41.116, 1579559141116
37, 45747.18, 83402.29, -30996.30, 109449.34, 12401.75, -27236.85, -48687.60, -32639.02, -16069.74, 33140.33, -47266.63, -19577.45, -30147.56, -8432.58, -1791.05, 71125.13, 0.000, 0.000, 0.000, 19:25:41.116, 1579559141116
38, 59074.90, 86082.38, -33682.20, 95980.06, -1736.37, -43736.08, -58832.07, -41938.82, -23004.26, 33603.99, -54072.87, -22025.90, -35257.55, -13111.33, -7486.38, -65486.45, -0.018, -0.308, 0.968, 19:25:41.116, 1579559141116
39, 42106.15, 78994.99, -26915.88, 107519.24, 8870.20, -29557.28, -51715.99, -31424.43, -11349.57, 33036.61, -43540.68, -14192.80, -25520.19, -3646.98, 3986.61, 182609.13, 0.000, 0.000, 0.000, 19:25:41.117, 1579559141117
40, 54458.50, 79477.75, -34448.13, 99837.37, 6119.59, -36233.68, -52742.63, -38254.54, -24788.60, 33341.14, -54182.13, -24742.69, -37583.61, -15834.82, -10058.35, -104314.67, 0.000, 0.000, 0.000, 19:25:41.117, 1579559141117
41, 49569.06, 81228.27, -28089.95, 97637.13, -378.48, -40441.68, -58402.00, -36939.12, -14923.48, 33248.26, -46636.91, -14584.42, -28029.78, -5931.95, 1190.63, 112950.71, 0.000, 0.000, 0.000, 19:25:41.117, 1579559141117
42, 44599.04, 75349.13, -30943.02, 105109.88, 11410.83, -28823.49, -49458.82, -32570.04, -16852.63, 33167.53, -46534.39, -18816.81, -30810.00, -9258.00, -2154.82, 70290.38, 0.000, 0.000, 0.000, 19:25:41.118, 1579559141118
43, 57888.07, 81489.20, -33474.20, 91819.69, -2711.94, -45262.77, -59471.75, -41728.56, -23624.16, 33566.86, -53200.17, -21162.68, -35852.31, -13765.37, -7775.84, -66310.47, -0.020, -0.304, 0.970, 19:25:41.118, 1579559141118
44, 41054.61, 76313.95, -26968.99, 103956.69, 7859.45, -30965.03, -52287.61, -31296.60, -11851.43, 32909.16, -42580.54, -13301.75, -26073.96, -4190.66, 3728.49, 182625.95, 0.000, 0.000, 0.000, 19:25:41.118, 1579559141118
45, 53296.73, 78162.69, -34523.59, 96872.21, 5179.95, -37389.13, -53194.33, -38155.61, -25222.78, 33142.99, -53180.16, -23975.44, -38100.29, -16296.72, -10295.55, -104336.60, 0.000, 0.000, 0.000, 19:25:41.118, 1579559141118
46, 48267.32, 80524.05, -28141.40, 95387.38, -1318.31, -41436.45, -58821.83, -36807.73, -15301.65, 33009.77, -45602.18, -13844.67, -28511.35, -6327.58, 983.79, 112829.34, 0.000, 0.000, 0.000, 19:25:41.119, 1579559141119
47, 43253.48, 74874.27, -31136.02, 103326.43, 10556.66, -29613.24, -49806.37, -32496.44, -17177.56, 32882.05, -45465.97, -18080.82, -31250.38, -9615.27, -2330.50, 70410.85, -0.020, -0.308, 0.966, 19:25:41.119, 1579559141119
48, 56738.88, 81652.80, -33558.06, 90485.87, -3522.86, -45943.96, -59818.59, -41598.52, -23955.08, 33266.57, -52175.56, -20542.35, -36254.13, -14170.02, -7962.56, -66944.39, 0.000, 0.000, 0.000, 19:25:41.119, 1579559141119
49, 39970.33, 76135.34, -26989.15, 103026.02, 7096.77, -31534.62, -52602.57, -31191.46, -12032.26, 32621.48, -41442.64, -12560.85, -26294.35, -4458.23, 3699.30, 182621.09, 0.000, 0.000, 0.000, 19:25:41.120, 1579559141120
50, 52335.56, 81306.44, -34481.81, 96830.41, 4690.25, -37641.59, -53299.45, -38005.23, -25220.46, 32792.22, -51888.01, -23121.09, -38126.09, -16398.96, -10150.73, -104656.43, 0.000, 0.000, 0.000, 19:25:41.120, 1579559141120
51, 47552.87, 83563.24, -28230.90, 96170.12, -1753.45, -41558.78, -58920.31, -36727.31, -15357.79, 32734.38, -44426.21, -13081.34, -28604.06, -6499.98, 1075.72, 112247.35, 0.000, 0.000, 0.000, 19:25:41.120, 1579559141120
52, 42352.84, 78426.10, -31158.33, 104503.52, 10272.95, -29527.57, -49827.27, -32421.92, -17023.63, 32992.13, -44120.02, -17189.94, -31147.74, -9596.77, -2033.87, 70866.94, -0.020, -0.304, 0.972, 19:25:41.121, 1579559141121
53, 55687.09, 86776.06, -33434.03, 92361.98, -3585.40, -45624.20, -59705.69, -41440.56, -23814.02, 33572.81, -50872.05, -19645.93, -36141.03, -14154.78, -7655.54, -66186.40, 0.000, 0.000, 0.000, 19:25:41.121, 1579559141121
54, 38764.32, 78778.14, -27057.21, 104881.22, 6968.74, -31246.66, -52609.72, -31124.60, -12078.66, 32802.55, -40388.98, -11940.64, -26387.64, -4649.50, 3830.49, 182846.98, 0.000, 0.000, 0.000, 19:25:41.121, 1579559141121
55, 51030.37, 81207.30, -34616.61, 97988.21, 4434.05, -37560.41, -53516.58, -38060.39, -25426.07, 32909.93, -51029.50, -22501.23, -38364.96, -16743.04, -10185.89, -103796.20, 0.000, 0.000, 0.000, 19:25:41.122, 1579559141122
56, 46249.76, 82902.93, -28264.32, 96556.78, -2088.59, -41680.04, -59225.21, -36863.52, -15582.56, 32595.08, -43637.91, -12378.22, -28832.95, -6841.65, 1048.34, 112338.74, 0.000, 0.000, 0.000, 19:25:41.122, 1579559141122
57, 41027.92, 77819.67, -31237.30, 104635.69, 9911.72, -29753.79, -50140.19, -32505.58, -17401.19, 32613.61, -43539.77, -16661.77, -31518.98, -10081.02, -2215.39, 71423.48, -0.020, -0.302, 0.970, 19:25:41.122, 1579559141122
58, 54254.30, 83213.28, -33708.33, 91601.45, -4181.90, -46193.41, -60250.06, -41851.38, -24178.69, 32907.98, -50363.84, -18850.57, -36514.61, -14624.23, -7852.46, -67340.64, 0.000, 0.000, 0.000, 19:25:41.123, 1579559141123
59, 37037.24, 82072.61, -26989.93, 104727.40, 6640.35, -31579.19, -52773.14, -30846.39, -12145.96, 32377.30, -39697.77, -11103.56, -26480.63, -4818.01, 3929.24, 182911.97, 0.000, 0.000, 0.000, 19:25:41.123, 1579559141123
60, 49450.59, 85576.13, -34840.36, 98914.58, 4172.27, -37705.60, -53620.76, -37864.32, -25494.69, 32600.96, -50468.38, -21953.19, -38494.69, -16925.46, -10138.08, -103776.30, 0.000, 0.000, 0.000, 19:25:41.124, 1579559141124
61, 44510.73, 89338.76, -28777.49, 98369.94, -2299.55, -41641.63, -59280.13, -37160.29, -15539.27, 31866.30, -43202.25, -12088.36, -28917.08, -6944.58, 1174.29, 112053.52, 0.000, 0.000, 0.000, 19:25:41.124, 1579559141124
62, 39288.20, 84490.91, -31085.58, 107353.16, 9832.24, -29434.81, -50111.49, -32490.67, -17291.55, 31680.56, -43297.83, -16778.72, -31601.01, -10128.60, -2040.62, 72083.79, -0.022, -0.308, 0.970, 19:25:41.124, 1579559141124
63, 52654.79, 92487.16, -34420.97, 95138.99, -4217.26, -45761.55, -60261.06, -43025.36, -24277.32, 31767.04, -50655.96, -20142.74, -36902.30, -14868.98, -7911.04, -67366.39, 0.000, 0.000, 0.000, 19:25:41.125, 1579559141125
64, 35524.52, 86934.67, -26803.94, 108226.59, 6454.94, -31222.79, -52946.74, -32456.59, -12331.57, 31614.44, -40448.43, -12491.58, -27048.70, -5178.90, 3788.67, 183076.22, 0.000, 0.000, 0.000, 19:25:41.125, 1579559141125
65, 48222.93, 85706.98, -34510.38, 101387.53, 3814.93, -37612.66, -54045.24, -39669.43, -26106.90, 32041.29, -51976.07, -24150.75, -39619.18, -17713.53, -10775.04, -103518.86, 0.000, 0.000, 0.000, 19:25:41.125, 1579559141125
66, 43459.32, 84177.94, -28516.04, 98642.88, -3145.81, -42282.12, -60122.95, -39627.52, -16327.88, 32205.78, -45226.43, -14770.57, -30358.36, -7966.63, 359.30, 111435.18, 0.000, 0.000, 0.000, 19:25:41.126, 1579559141126
67, 38416.70, 72475.28, -28995.42, 105411.92, 8713.36, -30625.35, -51093.07, -34374.01, -18582.32, 32779.10, -46120.34, -19161.41, -33665.13, -11674.41, -3428.38, 72029.66, -0.012, -0.304, 0.960, 19:25:41.126, 1579559141126
68, 52255.27, 68956.29, -33122.49, 88909.73, -6157.68, -48186.22, -61945.36, -44995.85, -25770.06, 32775.14, -53904.65, -21717.38, -39336.23, -16659.00, -9600.21, -68484.42, 0.000, 0.000, 0.000, 19:25:41.127, 1579559141127
69, 34846.70, 71451.26, -24315.23, 100317.55, 4489.08, -33996.98, -54260.51, -33737.30, -13588.16, 32431.66, -43451.14, -13132.14, -29262.23, -6713.50, 2371.21, 183138.09, 0.000, 0.000, 0.000, 19:25:41.127, 1579559141127
70, 47760.89, 70111.97, -32269.17, 93125.50, -2382.76, -40971.19, -55600.27, -40858.99, -27812.61, 33065.94, -55432.57, -24546.55, -42300.56, -19605.09, -12616.17, -103627.35, 0.000, 0.000, 0.000, 19:25:41.127, 1579559141127
71, 42848.61, 71817.38, -27240.63, 90309.65, -15203.37, -46217.39, -62121.87, -40783.53, -18008.20, 32850.63, -48612.47, -14778.88, -32996.27, -9783.74, -1465.54, 110728.98, 0.000, 0.000, 0.000, 19:25:41.127, 1579559141127
72, 37414.18, 72845.05, -26519.05, 99801.81, -8894.61, -34176.51, -52894.95, -34938.46, -19576.02, 33674.29, -48642.31, -18933.58, -35513.75, -12697.87, -4437.67, 72665.30, -0.010, -0.298, 0.958, 19:25:41.356, 1579559141356
73, 51146.55, 86129.92, -31728.37, 89040.98, -24967.52, -50644.22, -63279.57, -45167.51, -26666.59, 33735.73, -56116.29, -22205.38, -41030.92, -17487.58, -10389.69, -69802.64, 0.000, 0.000, 0.000, 19:25:41.586, 1579559141586
74, 34348.91, 81210.91, -22520.07, 103641.44, -16289.93, -35972.41, -56150.17, -34194.05, -14432.63, 33889.65, -45561.75, -14371.08, -30815.12, -7476.48, 1687.80, 183206.20, 0.000, 0.000, 0.000, 19:25:41.586, 1579559141586
75, 47067.34, 88529.91, -29878.16, 99325.98, -21141.55, -41550.17, -56963.15, -40613.74, -27737.73, 35012.57, -56560.19, -25603.61, -42880.30, -19481.87, -12294.06, -103382.13, 0.000, 0.000, 0.000, 19:25:41.587, 1579559141587
76, 42659.11, 93420.19, -26314.91, 100024.73, -27048.70, -45368.43, -62822.10, -40318.07, -17593.97, 34118.35, -49394.54, -16231.84, -33229.18, -9417.95, -739.04, 111073.30, 0.000, 0.000, 0.000, 19:25:41.587, 1579559141587
77, 37490.29, 91544.85, -25067.26, 111000.03, -15847.83, -32163.60, -53162.55, -34436.19, -19117.47, 35046.28, -49263.67, -20461.48, -35600.72, -12287.74, -3524.89, 74001.52, -0.018, -0.300, 0.966, 19:25:41.587, 1579559141587
78, 51624.23, 97923.59, -32659.07, 99834.17, -29262.99, -48165.53, -63605.64, -44746.80, -26345.51, 34779.47, -56706.06, -23585.78, -41135.75, -17181.41, -9507.36, -69874.86, 0.000, 0.000, 0.000, 19:25:41.588, 1579559141588
79, 34641.80, 96037.17, -23725.57, 114242.49, -18998.60, -32913.64, -56096.28, -33534.59, -14098.05, 34614.04, -45966.83, -15729.93, -30773.17, -7059.02, 2714.37, 183420.38, 0.000, 0.000, 0.000, 19:25:41.588, 1579559141588
80, 47299.29, 101905.00, -31563.59, 109936.09, -23543.94, -38247.50, -56856.27, -39896.28, -27564.30, 35512.50, -56803.22, -26772.70, -42830.57, -19067.13, -11256.94, -102921.11, 0.000, 0.000, 0.000, 19:25:41.588, 1579559141588
81, 42748.27, 107865.83, -29445.45, 110312.92, -28707.48, -41938.11, -62712.09, -39257.20, -17917.92, 34129.28, -49760.03, -17264.73, -33448.71, -9274.70, -13.88, 109856.56, 0.000, 0.000, 0.000, 19:25:41.589, 1579559141589
82, 37600.86, 97310.41, -27896.23, 119749.29, -18135.96, -29174.37, -53466.45, -33854.31, -19846.61, 34905.18, -49765.31, -21825.16, -36053.45, -12423.72, -3113.51, 73521.66, -0.022, -0.300, 0.964, 19:25:41.589, 1579559141589
83, 51293.34, 105560.87, -35519.83, 106841.36, -30942.61, -45409.94, -63835.21, -43602.73, -26994.65, 33971.99, -56925.76, -24527.66, -41355.62, -17174.16, -8944.36, -69585.80, 0.000, 0.000, 0.000, 19:25:41.589, 1579559141589
84, 34179.59, 105321.13, -26366.27, 121037.33, -18926.90, -30341.17, -56237.14, -32406.23, -14756.96, 33549.66, -45993.32, -16853.39, -30886.78, -7041.85, 3327.12, 183596.95, 0.000, 0.000, 0.000, 19:25:41.589, 1579559141589
85, 46950.75, 105659.84, -34241.89, 115878.37, -21090.81, -36014.34, -57073.08, -38886.29, -28622.12, 34261.29, -57089.80, -27982.86, -43265.80, -19477.78, -11062.88, -102364.64, 0.000, 0.000, 0.000, 19:25:41.590, 1579559141590
86, 42588.61, 102970.23, -32282.94, 113289.32, -26252.99, -40587.48, -63546.70, -38115.94, -19153.50, 32881.11, -50126.82, -18244.34, -33952.72, -9838.52, -10.10, 109807.63, 0.000, 0.000, 0.000, 19:25:41.590, 1579559141590
87, 37407.30, 92610.94, -29988.17, 120997.23, -12411.88, -28335.51, -54310.80, -32819.63, -21214.55, 33914.84, -50215.18, -22956.67, -36644.05, -13165.02, -3298.00, 73814.87, -0.024, -0.302, 0.960, 19:25:41.590, 1579559141590
88, 51438.18, 89364.64, -37322.36, 104912.65, -24822.91, -45647.74, -65170.62, -42526.25, -28927.60, 33315.99, -57928.59, -25782.36, -42474.71, -18498.35, -9757.74, -71309.66, 0.000, 0.000, 0.000, 19:25:41.591, 1579559141591
89, 34087.08, 87318.79, -27614.75, 115703.48, -11789.99, -31643.32, -57834.38, -31536.34, -16685.60, 32931.23, -47005.18, -17976.26, -32020.66, -8368.65, 2472.59, 183452.77, 0.000, 0.000, 0.000, 19:25:41.591, 1579559141591
90, 46662.11, 85129.21, -34877.06, 108210.80, -12069.63, -38001.61, -58577.13, -38139.18, -30501.41, 33802.72, -58070.52, -28946.40, -44404.15, -20831.60, -11950.96, -103032.30, 0.000, 0.000, 0.000, 19:25:41.591, 1579559141591
91, 42055.77, 87586.80, -32087.76, 104731.33, -17254.52, -42929.74, -64658.59, -37010.44, -20632.56, 32427.04, -50708.13, -18863.51, -34770.02, -10855.44, -530.12, 110072.28, 0.000, 0.000, 0.000, 19:25:41.592, 1579559141592
92, 36773.71, 83952.16, -30043.11, 113618.72, -3142.41, -30567.73, -54970.25, -32176.01, -22209.72, 33600.26, -50295.69, -23355.25, -37116.05, -13806.34, -3397.60, 74730.17, -0.022, -0.306, 0.968, 19:25:41.592, 1579559141592
93, 50903.04, 87904.58, -37168.43, 99832.81, -16036.79, -47234.71, -65216.69, -41628.98, -29601.64, 33166.97, -57597.71, -25984.68, -42659.18, -18878.69, -9548.22, -71253.78, 0.000, 0.000, 0.000, 19:25:41.592, 1579559141592
94, 33962.63, 87429.02, -27788.98, 112709.65, -4085.74, -32814.19, -57760.35, -30875.71, -17184.27, 32655.29, -46398.13, -18107.37, -32064.54, -8618.27, 2854.52, 183595.05, 0.000, 0.000, 0.000, 19:25:41.593, 1579559141593
95, 46875.07, 87989.16, -34944.25, 107047.38, -5171.48, -38488.65, -58210.00, -37676.73, -30778.87, 33678.91, -57136.85, -28965.49, -44254.39, -20919.51, -11369.15, -102591.73, 0.000, 0.000, 0.000, 19:25:41.593, 1579559141593
96, 42569.23, 90074.09, -31562.34, 104748.90, -11207.21, -43028.40, -64187.46, -36603.95, -20934.89, 32425.59, -49691.64, -18956.18, -34622.07, -10966.48, -4.92, 109724.66, 0.000, 0.000, 0.000, 19:25:41.593, 1579559141593
97, 37298.40, 85926.56, -30030.15, 114178.14, 2188.19, -30338.45, -54463.46, -32026.94, -22414.69, 33720.29, -49152.78, -23374.09, -36922.38, -13890.31, -2900.41, 75421.16, -0.020, -0.308, 0.964, 19:25:41.593, 1579559141593
98, 51379.71, 86834.00, -35961.03, 100304.77, -11305.38, -46795.61, -64641.62, -41388.10, -29763.67, 33216.93, -56370.47, -25924.33, -42438.63, -18935.01, -9104.22, -70794.23, 0.000, 0.000, 0.000, 19:25:41.594, 1579559141594
99, 34133.59, 90150.38, -27046.19, 113316.95, 154.00, -32260.47, -57122.52, -30717.22, -17265.09, 32756.64, -45103.00, -18086.20, -31822.54, -8618.52, 3297.62, 183826.58, 0.000, 0.000, 0.000, 19:25:41.594, 1579559141594
100, 46924.16, 90580.84, -34629.64, 108438.03, -1284.58, -37713.40, -57490.20, -37527.93, -30647.46, 33889.36, -55702.69, -28834.22, -43884.45, -20754.29, -10770.86, -101694.78, 0.000, 0.000, 0.000, 19:25:41.594, 1579559141594
101, 43427.34, 94556.50, -30496.14, 106661.60, -7485.71, -41993.65, -63341.24, -36349.39, -20714.34, 32452.47, -48259.29, -18881.41, -34264.71, -10752.69, 682.20, 109375.35, 0.000, 0.000, 0.000, 19:25:41.595, 1579559141595
102, 38397.93, 90018.83, -30657.76, 116600.95, 5572.60, -29230.40, -53730.35, -31869.81, -22200.15, 33842.60, -47826.16, -23355.87, -36660.50, -13714.20, -2179.97, 75737.27, -0.018, -0.306, 0.966, 19:25:41.595, 1579559141595
103, 52089.64, 88830.27, -36055.57, 102735.38, -8092.63, -45475.72, -63885.51, -41267.36, -29511.23, 34204.92, -55079.95, -25790.25, -42191.09, -18752.13, -8293.93, -70272.92, 0.000, 0.000, 0.000, 19:25:41.597, 1579559141597
104, 34782.80, 90894.04, -27616.09, 115169.84, 3198.80, -30845.34, -56449.02, -30524.12, -16964.19, 33793.71, -43871.46, -17900.62, -31604.31, -8448.47, 4155.41, 183972.91, 0.000, 0.000, 0.000, 19:25:41.600, 1579559141600
105, 46776.32, 98674.43, -35149.41, 110785.19, 1932.91, -35931.19, -56495.98, -37078.79, -29848.05, 35196.17, -54017.86, -28251.40, -43200.42, -20115.16, -9419.72, -100975.55, 0.000, 0.000, 0.000, 19:25:41.600, 1579559141600
106, 42482.17, 102751.68, -30777.28, 110490.10, -4402.13, -39939.13, -62364.00, -36215.57, -20340.02, 33503.12, -46997.00, -18603.09, -34001.85, -10525.17, 1613.35, 109535.05, 0.000, 0.000, 0.000, 19:25:41.600, 1579559141600
107, 36915.94, 93982.16, -31094.92, 119751.10, 8394.87, -27259.27, -52976.79, -31611.98, -21616.06, 34986.69, -46393.39, -22844.46, -36214.74, -13304.00, -1080.08, 76192.55, -0.016, -0.306, 0.964, 19:25:41.601, 1579559141601
108, 50472.59, 99787.66, -36080.12, 106803.31, -5055.14, -43212.31, -62815.51, -40846.70, -28918.96, 34451.48, -53668.57, -25343.01, -41796.29, -18372.26, -7265.61, -71009.50, 0.000, 0.000, 0.000, 19:25:41.601, 1579559141601
109, 33495.72, 93278.56, -27857.18, 118791.96, 5721.73, -28960.55, -55821.31, -30450.81, -16715.08, 33827.35, -42855.51, -17722.61, -31585.63, -8432.64, 4754.80, 183998.38, 0.000, 0.000, 0.000, 19:25:41.601, 1579559141601
110, 45527.98, 96862.29, -35252.70, 112867.63, 4155.73, -34445.09, -56096.44, -36961.67, -29824.33, 35244.14, -53279.07, -28179.04, -43440.37, -20361.12, -9114.59, -100902.59, 0.000, 0.000, 0.000, 19:25:41.601, 1579559141601
111, 41234.72, 97874.02, -30737.89, 110714.47, -2468.28, -38907.97, -62142.90, -36033.00, -20308.12, 33443.53, -46303.54, -18469.13, -34280.11, -10818.56, 1803.36, 109816.58, 0.000, 0.000, 0.000, 19:25:41.602, 1579559141602
112, 35612.92, 91379.90, -30845.23, 119117.25, 10262.83, -26434.96, -52705.95, -31348.66, -21438.72, 34971.34, -45596.42, -22648.49, -36379.52, -13493.75, -775.85, 76951.63, -0.018, -0.302, 0.966, 19:25:41.602, 1579559141602
113, 48656.77, 99562.42, -35857.11, 106432.50, -3260.92, -42409.55, -62449.25, -40548.30, -28800.38, 34427.03, -52972.92, -25307.65, -42034.78, -18635.05, -7025.58, -70484.84, 0.000, 0.000, 0.000, 19:25:41.602, 1579559141602
114, 31603.76, 91305.73, -27779.53, 118240.84, 7314.34, -28277.19, -55590.33, -30293.94, -16635.55, 33802.83, -42250.45, -17746.84, -31896.09, -8768.90, 4966.74, 184141.39, 0.000, 0.000, 0.000, 19:25:41.603, 1579559141603
115, 43091.84, 94579.84, -35099.95, 112138.19, 5671.93, -33787.30, -55846.37, -36810.04, -29704.26, 35275.39, -52646.31, -28146.75, -43747.55, -20687.90, -8829.52, -100323.01, 0.000, 0.000, 0.000, 19:25:41.603, 1579559141603
116, 38314.44, 95622.84, -30548.24, 109783.23, -1081.60, -38320.14, -61945.02, -35893.82, -20285.66, 33477.73, -45793.00, -18505.95, -34710.09, -11272.92, 2000.17, 109278.97, 0.000, 0.000, 0.000, 19:25:41.603, 1579559141603
117, 32397.33, 88932.07, -31011.44, 118031.78, 11523.31, -25955.27, -52586.23, -31378.63, -21397.91, 34958.89, -45088.81, -22730.16, -36807.18, -13948.05, -576.54, 77089.48, -0.016, -0.302, 0.966, 19:25:41.603, 1579559141603
118, 45811.39, 97188.63, -35689.70, 105347.32, -2001.00, -41904.76, -62221.42, -40434.21, -28654.11, 34432.13, -52341.04, -25269.12, -42348.38, -18985.13, -6726.98, -70026.49, 0.000, 0.000, 0.000, 19:25:41.604, 1579559141604
119, 29065.78, 89383.88, -27647.72, 117270.84, 8609.00, -27698.28, -55313.35, -30273.89, -16499.68, 33599.19, -41611.44, -17860.18, -32215.17, -9144.57, 5223.36, 184308.36, 0.000, 0.000, 0.000, 19:25:41.604, 1579559141604
120, 40941.46, 92936.54, -34988.37, 111269.48, 7008.25, -33135.86, -55494.15, -36799.57, -29463.51, 34682.13, -51878.82, -28208.15, -43937.74, -20960.08, -8498.27, -99204.28, 0.000, 0.000, 0.000, 19:25:41.604, 1579559141604
121, 36759.36, 94630.09, -30305.01, 109126.95, 321.57, -37566.93, -61491.32, -35792.43, -20072.36, 32768.84, -45045.47, -18709.91, -34880.75, -11530.21, 2311.75, 109953.41, 0.000, 0.000, 0.000, 19:25:41.605, 1579559141605
122, 31339.07, 87939.23, -30894.00, 117450.26, 12780.93, -25358.12, -52209.61, -31498.48, -21266.95, 34075.21, -44419.35, -22998.74, -37009.19, -14238.58, -334.07, 78033.73, -0.020, -0.300, 0.966, 19:25:41.605, 1579559141605
123, 44959.15, 95106.24, -35613.30, 104505.84, -911.15, -41492.48, -61910.75, -40468.12, -28632.94, 33436.35, -51806.65, -25634.16, -42636.22, -19370.18, -6586.01, -69819.76, 0.000, 0.000, 0.000, 19:25:41.605, 1579559141605
124, 28289.04, 87056.78, -27785.50, 116201.35, 9410.49, -27620.01, -55141.28, -30436.39, -16656.50, 32668.17, -41291.23, -18206.68, -32656.52, -9671.06, 5206.46, 184334.20, 0.000, 0.000, 0.000, 19:25:41.606, 1579559141606
125, 40435.82, 86122.61, -35255.76, 109227.41, 7344.38, -33604.10, -55613.11, -37152.82, -29858.87, 33954.36, -51848.47, -28688.51, -44607.57, -21707.37, -8770.06, -98935.81, 0.000, 0.000, 0.000, 19:25:41.606, 1579559141606
126, 36294.67, 87673.33, -30369.09, 106064.05, 319.12, -38481.63, -61713.61, -36029.45, -20390.36, 32169.26, -44984.52, -18966.95, -35502.01, -12225.87, 2048.90, 110413.14, 0.000, 0.000, 0.000, 19:25:41.606, 1579559141606
127, 30990.40, 80190.01, -31122.01, 113904.20, 12498.71, -26566.81, -52475.01, -31883.49, -21647.64, 33513.27, -44442.87, -23125.47, -37725.16, -15027.70, -746.08, 78662.36, -0.020, -0.308, 0.962, 19:25:41.606, 1579559141606
0, 44871.41, 85645.89, -35584.56, 100140.70, -1494.30, -43043.63, -62243.53, -40800.56, -29076.33, 33050.20, -51810.58, -25723.75, -43333.55, -20137.92, -7068.47, -69492.48, 0.000, 0.000, 0.000, 19:25:41.607, 1579559141607
1, 28348.11, 80392.94, -27659.63, 111718.26, 8657.88, -29326.45, -55389.77, -30720.13, -17005.92, 32190.87, -41196.27, -18163.21, -33272.25, -10343.85, 4736.11, 184438.39, 0.000, 0.000, 0.000, 19:25:41.607, 1579559141607
2, 40653.13, 81908.23, -35120.31, 105174.32, 6478.59, -35270.80, -55763.04, -37447.26, -30083.46, 33701.22, -51643.39, -28549.12, -45108.30, -22270.03, -9190.77, -98526.66, 0.000, 0.000, 0.000, 19:25:41.607, 1579559141607
3, 36986.37, 83701.23, -30221.68, 102546.54, -678.84, -40144.69, -61842.92, -36261.48, -20621.83, 31903.81, -44800.49, -18840.42, -36021.40, -12796.13, 1572.89, 109706.60, 0.000, 0.000, 0.000, 19:25:41.608, 1579559141608
4, 32027.12, 77372.64, -31148.18, 110864.16, 11450.87, -28073.50, -52576.38, -32092.46, -21735.86, 33274.77, -44186.98, -22920.51, -38157.82, -15495.39, -1119.67, 78498.92, -0.020, -0.304, 0.964, 19:25:41.836, 1579559141836
5, 46048.08, 83825.50, -35377.67, 97664.38, -2481.49, -44322.32, -62238.52, -40907.13, -28966.65, 32931.07, -51477.18, -25448.78, -43681.25, -20506.96, -7330.43, -69395.03, 0.000, 0.000, 0.000, 19:25:42.065, 1579559142065
6, 29596.59, 79121.69, -27647.23, 109905.11, 7728.94, -30380.96, -55311.58, -30783.83, -16776.95, 32105.33, -40831.23, -17899.48, -33578.02, -10668.13, 4552.96, 184570.31, 0.000, 0.000, 0.000, 19:25:42.065, 1579559142065
7, 41836.21, 80019.87, -35167.29, 103669.09, 5602.53, -36168.63, -55658.82, -37496.57, -29821.34, 33666.73, -51262.05, -28280.97, -45402.61, -22570.34, -9341.33, -97866.55, 0.000, 0.000, 0.000, 19:25:42.065, 1579559142065
8, 38135.72, 82473.20, -30070.36, 101163.70, -1582.24, -41062.61, -61723.27, -36350.04, -20317.82, 32213.15, -44385.33, -18627.29, -36261.77, -13033.70, 1502.62, 109902.61, 0.000, 0.000, 0.000, 19:25:42.066, 1579559142066
9, 32698.03, 77044.38, -31009.85, 109920.40, 10503.84, -28972.60, -52433.08, -32149.21, -21457.72, 34395.94, -43802.00, -22808.93, -38384.67, -15729.46, -1200.76, 79156.24, -0.022, -0.304, 0.960, 19:25:42.066, 1579559142066
10, 46336.39, 82987.13, -35405.05, 96776.86, -3522.23, -45360.98, -62143.46, -41061.72, -28790.21, 34053.04, -51172.82, -25356.76, -43971.07, -20805.67, -7499.28, -69504.60, 0.000, 0.000, 0.000, 19:25:42.066, 1579559142066
11, 29682.80, 77974.55, -27490.83, 108954.36, 6447.41, -31699.58, -55314.71, -30910.72, -16627.51, 33110.04, -40555.47, -17856.34, -33860.63, -10952.29, 4395.87, 184698.88, 0.000, 0.000, 0.000, 19:25:42.067, 1579559142067
12, 41855.83, 78858.41, -35057.41, 102692.25, 4223.36, -37571.16, -55688.39, -37623.95, -29736.11, 34974.62, -51066.07, -28237.23, -45701.34, -22887.45, -9562.66, -97277.41, 0.000, 0.000, 0.000, 19:25:42.067, 1579559142067
13, 37779.99, 81565.42, -30192.29, 100075.20, -3163.20, -42712.82, -61854.45, -36646.64, -20229.31, 32826.24, -44264.36, -18556.44, -36578.50, -13374.19, 1214.62, 109737.14, 0.000, 0.000, 0.000, 19:25:42.072, 1579559142072
14, 32155.08, 76481.85, -31153.10, 108996.52, 8811.28, -30621.04, -52620.00, -32442.75, -21525.78, 34396.43, -43955.64, -22848.40, -38875.70, -16256.85, -1692.34, 79409.38, -0.016, -0.302, 0.958, 19:25:42.073, 1579559142073
15, 45553.52, 79719.41, -35505.25, 95394.60, -5419.56, -47159.25, -62592.55, -41642.39, -28889.90, 34042.82, -51606.46, -25209.84, -44528.05, -21387.98, -8092.96, -69065.41, 0.000, 0.000, 0.000, 19:25:42.073, 1579559142073
16, 28080.50, 78500.98, -27696.98, 107835.80, 4707.28, -33269.39, -55640.06, -31291.19, -16709.61, 32990.82, -41209.15, -17908.57, -34457.61, -11547.92, 3730.82, 184831.28, 0.000, 0.000, 0.000, 19:25:42.073, 1579559142073
17, 40087.88, 70478.09, -35609.88, 100862.42, 2108.64, -39409.54, -56451.95, -38207.36, -30598.78, 34927.48, -52801.23, -28723.02, -47105.14, -24266.84, -11066.35, -96682.20, 0.000, 0.000, 0.000, 19:25:42.074, 1579559142074
18, 34996.04, 64236.48, -30346.02, 94623.00, -5840.11, -45375.71, -63178.54, -37249.52, -21204.21, 32618.97, -46491.83, -18856.22, -38110.04, -14848.78, -410.67, 109760.61, 0.000, 0.000, 0.000, 19:25:42.074, 1579559142074
19, 29144.24, 58928.72, -31076.59, 101490.84, 5819.41, -33876.37, -54101.81, -33080.29, -22602.96, 34203.69, -46705.49, -23105.29, -40554.91, -17829.52, -3447.20, 79888.28, -0.012, -0.310, 0.962, 19:25:42.075, 1579559142075
20, 42329.11, 69783.06, -35394.93, 87113.02, -8367.35, -50591.47, -63798.40, -42795.36, -29729.88, 33785.60, -54489.15, -25163.73, -46025.30, -22759.48, -9648.35, -70066.59, 0.000, 0.000, 0.000, 19:25:42.075, 1579559142075
21, 25044.66, 68810.73, -27151.56, 100255.66, 1427.23, -37069.79, -56894.02, -33047.88, -18088.48, 32625.30, -44978.44, -18267.79, -36506.90, -13455.12, 1663.28, 184677.80, 0.000, 0.000, 0.000, 19:25:42.075, 1579559142075
22, 37484.99, 39916.86, -35424.27, 89733.51, -2427.71, -44513.09, -58818.03, -40821.41, -33182.62, 34444.62, -58030.80, -29582.64, -50329.89, -27344.14, -14393.38, -97605.88, 0.000, 0.000, 0.000, 19:25:42.076, 1579559142076
23, 32408.20, 23595.15, -30466.10, 77003.05, -11351.24, -51888.21, -66342.55, -40176.30, -23789.05, 32036.42, -51834.81, -19224.98, -41318.16, -17916.91, -3880.46, 109527.32, 0.000, 0.000, 0.000, 19:25:42.076, 1579559142076
24, 25841.54, 27643.25, -30149.13, 81658.79, 321.22, -40747.32, -56988.23, -35683.69, -25620.40, 33553.39, -52476.95, -23827.81, -44211.19, -21354.39, -7516.78, 79721.54, -0.014, -0.310, 0.964, 19:25:42.076, 1579559142076
25, 39037.99, 25096.94, -35588.40, 63389.21, -14857.05, -58739.06, -67481.19, -44951.99, -32230.57, 33192.23, -59595.67, -25102.80, -49139.04, -25768.16, -13386.26, -70425.85, 0.000, 0.000, 0.000, 19:25:42.077, 1579559142077
26, 20459.38, 60293.20, -26213.25, 80087.37, -3699.44, -43938.84, -58974.63, -33768.99, -18487.08, 32069.75, -47809.38, -17071.28, -37593.13, -14439.23, -103.56, 184965.00, 0.000, 0.000, 0.000, 19:25:42.077, 1579559142077
27, 32183.83, 75595.56, -34029.88, 82736.37, -5231.36, -48292.11, -58386.96, -40338.04, -30978.51, 34192.22, -58041.67, -27423.58, -48920.12, -25824.89, -13477.23, -95783.21, 0.000, 0.000, 0.000, 19:25:42.077, 1579559142077
28, 27641.91, 78672.13, -30344.08, 86103.27, -12552.45, -52385.56, -64438.71, -39397.52, -21500.34, 31977.03, -51507.67, -18128.70, -39883.73, -16366.68, -2713.28, 109237.89, 0.000, 0.000, 0.000, 19:25:42.078, 1579559142078
29, 21566.55, 73769.83, -29887.81, 97999.52, -298.46, -38952.41, -55077.49, -35061.41, -22289.88, 33623.04, -50838.04, -22364.26, -41710.52, -18745.00, -4958.13, 81311.53, -0.016, -0.306, 0.966, 19:25:42.078, 1579559142078
30, 34953.79, 81894.80, -35476.42, 87604.33, -13807.10, -54193.84, -64593.90, -43802.73, -29683.38, 33433.58, -58487.54, -24874.34, -47384.07, -23910.29, -11248.51, -69113.71, 0.000, 0.000, 0.000, 19:25:42.078, 1579559142078
31, 17592.88, 74688.95, -26960.34, 100730.21, -3778.38, -39897.10, -57998.62, -33733.96, -17473.56, 32202.54, -47994.29, -17662.75, -37266.68, -14036.20, 772.92, 185167.83, 0.000, 0.000, 0.000, 19:25:42.079, 1579559142079
32, 29503.29, 77480.27, -34169.45, 95417.36, -5376.20, -44732.32, -58177.79, -40235.87, -30412.32, 34289.18, -58416.33, -27914.53, -48926.09, -25791.41, -12848.90, -94701.95, 0.000, 0.000, 0.000, 19:25:42.079, 1579559142079
33, 25234.72, 79157.09, -30439.68, 93488.85, -12564.97, -49571.74, -64519.56, -39141.55, -21215.22, 31972.56, -51900.39, -18510.46, -40036.46, -16503.63, -2207.55, 109552.29, -0.018, -0.306, 0.972, 19:25:42.079, 1579559142079
34, 19496.24, 72843.41, -29621.09, 102263.83, -229.69, -36904.92, -55327.74, -34953.52, -22251.38, 33561.86, -51257.67, -22729.46, -42038.54, -19075.45, -4652.40, 81807.92, 0.000, 0.000, 0.000, 19:25:42.080, 1579559142080
35, 33276.29, 79519.62, -35228.00, 89601.37, -13784.88, -52837.55, -64989.06, -43715.85, -29716.84, 33355.69, -58795.12, -25176.24, -47729.94, -24288.70, -11024.01, -70077.95, 0.000, 0.000, 0.000, 19:25:42.080, 1579559142080
36, 16202.53, 75645.12, -26569.72, 102149.46, -3683.90, -38952.81, -58300.39, -33590.98, -17475.04, 32166.01, -48113.27, -17819.44, -37510.07, -14318.71, 1039.96, 185182.86, 0.000, 0.000, 0.000, 19:25:42.080, 1579559142080
37, 28418.07, 77366.63, -33742.48, 96842.33, -5256.77, -44028.15, -58430.86, -40149.45, -30438.11, 34258.65, -58449.05, -28008.86, -49194.42, -26121.92, -12651.29, -94564.98, 0.000, 0.000, 0.000, 19:25:42.081, 1579559142081
38, 24225.00, 79436.42, -29810.90, 94681.56, -12402.04, -49034.52, -64658.74, -39004.13, -21111.27, 31930.63, -51689.28, -18464.44, -40147.78, -16682.47, -1874.89, 110096.20, -0.016, -0.306, 0.966, 19:25:42.081, 1579559142081
39, 18738.12, 73261.41, -29258.34, 103618.66, -75.55, -36493.42, -55402.37, -34887.59, -22175.93, 33586.82, -51002.45, -22702.98, -42203.78, -19301.83, -4371.93, 83071.51, 0.000, 0.000, 0.000, 19:25:42.081, 1579559142081
40, 32731.38, 77363.03, -34859.33, 90375.41, -13702.29, -52616.68, -65075.34, -43611.83, -29734.55, 33317.46, -58531.30, -25156.44, -47970.66, -24580.26, -10817.48, -69401.92, 0.000, 0.000, 0.000, 19:25:42.082, 1579559142082
41, 15693.85, 73703.76, -26287.30, 102343.16, -3673.55, -38919.30, -58397.66, -33528.71, -17538.56, 32018.31, -47797.39, -17830.30, -37770.51, -14608.88, 1230.08, 185314.95, 0.000, 0.000, 0.000, 19:25:42.082, 1579559142082
42, 27996.45, 75404.97, -33569.75, 96556.83, -5309.81, -44151.85, -58564.95, -40150.46, -30502.15, 34250.36, -58035.48, -28033.27, -49416.60, -26389.01, -12463.56, -93993.82, 0.000, 0.000, 0.000, 19:25:42.083, 1579559142083
43, 23941.53, 77633.59, -29747.78, 94064.59, -12604.39, -49361.97, -64889.23, -38975.50, -21320.41, 31884.67, -51379.26, -18523.45, -40498.61, -17075.99, -1851.80, 109178.32, -0.012, -0.308, 0.966, 19:25:42.083, 1579559142083
44, 18344.08, 72380.98, -29221.31, 102938.01, -306.29, -36830.76, -55637.54, -34770.37, -22199.24, 33602.36, -50439.97, -22614.49, -42326.91, -19493.25, -4177.54, 83237.70, 0.000, 0.000, 0.000, 19:25:42.083, 1579559142083
45, 32340.58, 78950.00, -34973.04, 90228.00, -13834.81, -52822.31, -65196.62, -43417.01, -29778.02, 33377.97, -57950.67, -25165.78, -48070.96, -24788.93, -10672.06, -69383.27, 0.000, 0.000, 0.000, 19:25:42.084, 1579559142084
46, 15455.72, 73018.79, -26420.95, 102264.91, -3978.86, -39218.39, -58640.96, -33354.16, -17627.77, 32108.01, -47250.69, -17748.45, -37896.35, -14864.98, 1287.66, 185456.00, 0.000, 0.000, 0.000, 19:25:42.084, 1579559142084
47, 27733.48, 75607.50, -33739.93, 96416.44, -5561.94, -44374.92, -58754.71, -39839.97, -30487.29, 34362.45, -57366.58, -27918.54, -49447.42, -26566.54, -12367.02, -93295.84, 0.000, 0.000, 0.000, 19:25:42.084, 1579559142084
48, 23846.67, 77602.82, -30318.26, 94010.18, -12948.66, -49663.05, -65132.76, -38643.30, -21338.40, 31878.64, -50754.42, -18429.46, -40574.61, -17294.24, -1821.11, 109020.34, -0.014, -0.312, 0.964, 19:25:42.085, 1579559142085
49, 18175.79, 72007.10, -28658.47, 102609.77, -622.92, -37092.90, -55828.11, -34371.53, -22178.21, 33642.35, -49758.42, -22400.45, -42355.13, -19652.03, -4100.43, 83706.05, 0.000, 0.000, 0.000, 19:25:42.085, 1579559142085
50, 32213.13, 80138.24, -35642.71, 89860.76, -14189.89, -53134.81, -65432.07, -42925.83, -29817.96, 33423.90, -57316.75, -25123.90, -48172.43, -25012.07, -10643.45, -70045.41, 0.000, 0.000, 0.000, 19:25:42.086, 1579559142086
51, 15226.01, 76171.59, -26490.77, 102183.73, -4230.96, -39344.68, -58737.34, -32650.73, -17327.88, 32174.84, -46268.58, -17369.79, -37642.86, -14713.17, 1716.50, 185558.23, 0.000, 0.000, 0.000, 19:25:42.086, 1579559142086
52, 27360.90, 85202.43, -33267.87, 97797.95, -5409.39, -43955.02, -58507.48, -39035.67, -29960.01, 34505.95, -56129.21, -27571.21, -48970.39, -26172.15, -11667.30, -92690.05, 0.000, 0.000, 0.000, 19:25:42.086, 1579559142086
53, 23580.15, 89259.85, -31179.79, 97212.77, -12600.13, -48731.47, -64739.88, -37867.63, -20780.84, 32119.03, -49489.38, -18105.67, -40056.79, -16837.90, -1031.18, 109906.72, -0.014, -0.308, 0.960, 19:25:42.086, 1579559142086
54, 18072.35, 82412.60, -28367.74, 106765.27, -86.50, -35707.67, -55368.38, -33616.93, -21531.86, 33944.01, -48413.21, -22081.71, -41740.18, -19098.40, -3220.35, 85043.22, 0.000, 0.000, 0.000, 19:25:42.087, 1579559142087
55, 32237.03, 92081.16, -36046.88, 94910.11, -13376.60, -51340.93, -64849.89, -42347.73, -29191.13, 33660.32, -56031.64, -24995.82, -47588.89, -24465.21, -9798.87, -69045.95, 0.000, 0.000, 0.000, 19:25:42.087, 1579559142087
56, 15487.39, 84760.18, -26872.09, 107423.51, -3437.85, -37486.09, -58276.98, -32341.90, -17023.94, 32485.60, -45374.55, -17435.28, -37374.44, -14473.60, 2227.82, 185740.06, 0.000, 0.000, 0.000, 19:25:42.087, 1579559142087
57, 27913.33, 84325.40, -33532.45, 101404.20, -4896.28, -42525.58, -58482.98, -38962.60, -30235.25, 34733.69, -55887.00, -28009.62, -49271.98, -26507.13, -11777.11, -91993.18, 0.000, 0.000, 0.000, 19:25:42.088, 1579559142088
58, 24232.91, 83501.20, -31840.21, 97812.66, -12456.56, -48084.99, -65079.02, -37962.58, -21083.48, 32280.12, -49382.71, -18362.23, -40387.99, -17209.63, -1236.16, 109112.27, -0.016, -0.308, 0.964, 19:25:42.088, 1579559142088
59, 18775.67, 76176.73, -28733.46, 105934.63, -80.18, -35652.68, -55746.72, -33714.01, -22256.28, 34040.03, -48831.50, -22581.99, -42496.03, -19879.04, -3876.53, 84932.91, 0.000, 0.000, 0.000, 19:25:42.088, 1579559142088
60, 33269.21, 76564.24, -36435.42, 91160.38, -14010.63, -52351.34, -65747.01, -42719.93, -30089.13, 33726.81, -56701.05, -25274.30, -48508.89, -25417.20, -10577.31, -69289.96, 0.000, 0.000, 0.000, 19:25:42.088, 1579559142088
61, 16426.74, 75053.87, -26836.15, 102505.68, -4108.88, -38954.02, -58948.43, -32455.65, -17670.80, 32482.74, -45875.70, -17452.24, -38055.77, -15178.20, 1708.66, 185884.05, 0.000, 0.000, 0.000, 19:25:42.091, 1579559142091
62, 28771.72, 81377.38, -33252.91, 97383.35, -5476.92, -44009.60, -58815.35, -38978.38, -30475.37, 34755.00, -56097.04, -27797.57, -49587.88, -26828.42, -11969.13, -91134.77, 0.000, 0.000, 0.000, 19:25:42.091, 1579559142091
63, 25237.76, 85597.86, -31434.24, 95844.34, -12937.93, -49318.03, -65137.34, -37946.42, -21200.03, 32310.81, -49645.66, -18123.53, -40614.91, -17431.39, -1313.88, 109073.96, -0.012, -0.306, 0.960, 19:25:42.091, 1579559142091
64, 19779.08, 79222.49, -28531.51, 105560.16, -479.49, -36485.31, -55673.41, -33636.25, -22063.65, 34096.60, -49009.51, -22209.70, -42422.87, -19810.06, -3665.75, 85949.56, 0.000, 0.000, 0.000, 19:25:42.092, 1579559142092
65, 34276.02, 84797.33, -36082.04, 92770.98, -14134.64, -52576.35, -65412.02, -42594.87, -29836.63, 33749.57, -57180.59, -25118.42, -48442.15, -25341.09, -10442.38, -69822.80, 0.000, 0.000, 0.000, 19:25:42.546, 1579559142546
66, 17656.74, 80490.88, -26691.94, 105099.17, -4298.87, -38904.95, -58739.67, -32440.14, -17529.27, 32540.81, -46841.70, -17348.19, -38119.40, -15220.15, 1701.10, 185944.05, 0.000, 0.000, 0.000, 19:25:42.546, 1579559142546
67, 30181.34, 81251.65, -33055.79, 99509.13, -5771.13, -43912.26, -58875.48, -39058.73, -30537.60, 34656.09, -57503.06, -27868.13, -49822.84, -27070.02, -12200.50, -90758.27, 0.000, 0.000, 0.000, 19:25:42.547, 1579559142547
68, 26853.92, 83364.77, -30585.25, 96802.83, -13282.79, -49306.20, -65310.03, -38118.93, -21283.55, 32292.90, -51223.60, -18191.14, -40840.28, -17687.52, -1566.57, 109526.23, -0.012, -0.308, 0.958, 19:25:42.547, 1579559142547
69, 21697.93, 75172.38, -27362.07, 105497.46, -908.24, -36679.39, -55945.74, -33794.85, -22295.35, 34027.36, -50707.59, -22248.23, -42702.74, -20198.76, -4107.45, 87207.67, 0.000, 0.000, 0.000, 19:25:42.547, 1579559142547
70, 36590.21, 76701.66, -34381.68, 91221.40, -14678.68, -53131.21, -65824.70, -42878.71, -29946.38, 33686.11, -58671.16, -25044.79, -48460.14, -25648.09, -10863.44, -69156.67, 0.000, 0.000, 0.000, 19:25:42.548, 1579559142548
71, 20098.08, 76583.82, -24448.74, 103176.37, -4657.48, -39516.36, -58828.52, -32537.12, -17303.40, 32828.41, -47902.07, -16934.84, -37701.69, -15222.92, 1534.16, 186132.69, 0.000, 0.000, 0.000, 19:25:42.548, 1579559142548
72, 32511.17, 80448.84, -30797.93, 98439.54, -5976.92, -44466.92, -58729.21, -39128.74, -30041.26, 34547.97, -58135.37, -27392.08, -48927.03, -26754.19, -12093.88, -89665.63, 0.000, 0.000, 0.000, 19:25:42.548, 1579559142548
73, 29263.17, 88561.90, -28569.22, 97407.67, -13276.67, -49593.71, -64808.79, -38233.84, -20478.60, 32743.56, -51567.33, -17589.12, -39419.51, -16999.93, -1101.87, 109041.33, -0.016, -0.306, 0.964, 19:25:42.548, 1579559142548
74, 24149.83, 83671.14, -26717.89, 108692.20, -680.54, -36415.48, -55103.20, -33534.59, -21364.80, 34141.19, -50871.45, -21583.65, -40982.30, -19204.44, -3370.87, 87676.32, 0.000, 0.000, 0.000, 19:25:42.549, 1579559142549
75, 38937.79, 88761.95, -33636.40, 96716.69, -14326.44, -52315.51, -64835.68, -42533.29, -28982.05, 33561.37, -58858.98, -24637.61, -46746.84, -24445.43, -9975.07, -69406.61, 0.000, 0.000, 0.000, 19:25:42.549, 1579559142549
76, 22173.96, 87890.92, -25213.15, 110318.84, -4149.00, -38095.46, -57668.66, -32001.01, -16611.12, 33327.97, -48405.88, -16771.29, -36137.16, -14116.91, 2295.64, 186229.50, 0.000, 0.000, 0.000, 19:25:42.549, 1579559142549
77, 34834.84, 79305.23, -32857.69, 104312.64, -5967.27, -43373.13, -58247.44, -38831.28, -30242.38, 34354.09, -59510.58, -27768.55, -48319.93, -26389.54, -12165.29, -89232.52, 0.000, 0.000, 0.000, 19:25:42.550, 1579559142550
78, 31362.27, 80737.83, -29184.29, 99444.63, -13635.66, -49088.21, -64757.98, -38064.41, -20462.51, 32933.21, -52823.07, -17580.85, -38773.77, -16426.01, -992.57, 109516.26, -0.018, -0.304, 0.966, 19:25:42.550, 1579559142550
79, 25369.74, 84720.93, -28882.39, 110376.80, -738.70, -35944.62, -54693.96, -33030.80, -21763.24, 34385.05, -52513.84, -21772.61, -40757.89, -19029.49, -3694.94, 88606.70, 0.000, 0.000, 0.000, 19:25:42.552, 1579559142552
80, 40398.45, 58238.09, -35342.96, 93596.92, -15879.75, -53733.41, -65958.52, -43478.68, -31206.14, 33659.45, -62314.29, -25706.92, -48316.76, -26073.49, -12202.62, -69838.31, 0.000, 0.000, 0.000, 19:25:42.553, 1579559142553
81, 22971.89, 46635.75, -26410.24, 98246.33, -6886.01, -41640.74, -59710.34, -33171.86, -19211.46, 32976.31, -52236.92, -17414.76, -38175.48, -16147.35, -436.75, 186163.92, 0.000, 0.000, 0.000, 19:25:42.553, 1579559142553
82, 35272.19, 29001.54, -34031.69, 85592.72, -9844.36, -49071.67, -61046.97, -40311.66, -33960.46, 34247.83, -64406.06, -28607.42, -51422.64, -29540.94, -16300.57, -90034.84, 0.000, 0.000, 0.000, 19:25:42.554, 1579559142554
83, 31754.41, 17842.21, -29153.58, 72024.23, -18989.84, -57199.34, -68527.85, -40181.91, -23966.95, 32335.28, -57543.43, -17608.41, -41711.66, -19443.07, -5397.72, 107296.75, -0.016, -0.308, 0.972, 19:25:42.554, 1579559142554
84, 24069.81, 61010.25, -28528.40, 83577.23, -5042.62, -43530.94, -56836.21, -33938.64, -22954.14, 34087.62, -54843.87, -20049.85, -41418.96, -19793.38, -5990.02, 88419.01, 0.000, 0.000, 0.000, 19:25:42.554, 1579559142554
85, 38460.73, 84443.99, -33604.42, 79868.73, -17987.14, -58572.57, -65518.08, -43379.64, -30092.55, 33626.70, -62255.53, -23144.09, -46813.18, -24653.73, -12183.82, -69287.23, 0.000, 0.000, 0.000, 19:25:42.555, 1579559142555
86, 22277.80, 79968.95, -26043.98, 98750.74, -8067.50, -43583.64, -58313.11, -33193.52, -17510.29, 33062.83, -51535.99, -15352.43, -36129.20, -14232.00, 321.04, 186529.39, 0.000, 0.000, 0.000, 19:25:42.555, 1579559142555
87, 33806.16, 83868.95, -33497.78, 97298.55, -9115.29, -47146.18, -58181.48, -39344.50, -30171.23, 34529.15, -61479.25, -25641.63, -47345.55, -25555.33, -13085.76, -87528.78, 0.000, 0.000, 0.000, 19:25:42.555, 1579559142555
88, 30817.60, 88642.03, -28574.42, 97583.71, -16218.47, -51336.77, -64319.09, -39032.36, -20728.47, 32851.27, -55121.14, -16302.16, -38244.10, -16029.91, -2196.48, 108505.73, -0.010, -0.308, 0.970, 19:25:42.556, 1579559142556
89, 24773.02, 84275.39, -29634.57, 109259.03, -3229.36, -37315.95, -54560.45, -33656.63, -21461.14, 34304.14, -54134.11, -20036.01, -39633.71, -18071.34, -4136.64, 89460.44, 0.000, 0.000, 0.000, 19:25:42.556, 1579559142556
90, 38894.70, 92326.72, -33818.99, 98109.91, -16164.49, -52434.08, -64149.39, -42980.77, -29010.46, 33872.82, -62008.07, -23286.74, -45373.04, -23320.40, -10494.23, -69992.32, 0.000, 0.000, 0.000, 19:25:42.556, 1579559142556
91, 21478.80, 88300.92, -25892.51, 111870.09, -5711.09, -37655.25, -57024.55, -32482.40, -16605.69, 33406.58, -51599.49, -15530.39, -34856.88, -13052.77, 2013.94, 186554.09, 0.000, 0.000, 0.000, 19:25:42.556, 1579559142556
92, 32425.41, 90261.23, -33451.11, 107081.52, -6452.21, -41813.09, -57149.34, -38620.80, -29478.26, 34049.33, -61844.14, -25902.29, -46338.29, -24528.54, -11468.03, -87761.48, 0.000, 0.000, 0.000, 19:25:42.557, 1579559142557
93, 28447.78, 96723.52, -28826.40, 105517.58, -12902.61, -45710.95, -63221.64, -38117.19, -20263.89, 33047.79, -55884.01, -16863.99, -37548.65, -15218.43, -694.31, 108426.14, -0.014, -0.304, 0.970, 19:25:42.557, 1579559142557
94, 18321.81, 73592.71, -30027.04, 113711.77, -252.26, -32625.39, -54490.73, -33276.79, -23130.90, 34120.00, -57058.91, -21909.92, -41134.50, -19310.77, -4768.01, 89188.28, 0.000, 0.000, 0.000, 19:25:42.557, 1579559142557
95, 30269.31, 37440.24, -35316.67, 90525.61, -15218.45, -50966.74, -66663.83, -43874.24, -32420.91, 33599.05, -66637.66, -25575.67, -48654.29, -26201.25, -13022.64, -71883.25, 0.000, 0.000, 0.000, 19:25:42.558, 1579559142558
96, 15322.17, 38360.75, -25386.31, 94117.07, -4431.77, -37508.71, -59529.02, -32556.03, -19709.92, 33159.55, -55891.14, -16950.96, -37866.43, -15601.25, -435.77, 186311.53, 0.000, 0.000, 0.000, 19:25:42.567, 1579559142567
97, 31885.86, 25862.67, -33380.77, 82590.74, -6090.31, -44073.04, -60459.14, -39206.19, -34192.60, 34351.64, -67697.22, -28081.30, -50927.53, -28666.33, -15823.22, -89798.22, 0.000, 0.000, 0.000, 19:25:42.568, 1579559142568
98, 33793.71, 17566.19, -28844.30, 71021.80, -13831.26, -50607.07, -67481.37, -39144.14, -23716.03, 32814.39, -60417.81, -17487.33, -40889.92, -18142.89, -4201.23, 106243.98, -0.014, -0.298, 0.960, 19:25:42.568, 1579559142568
99, 28487.45, 69760.48, -26666.41, 85324.05, 2106.94, -34955.38, -54835.44, -31753.56, -21774.96, 34169.47, -56790.95, -19448.63, -39804.34, -17563.46, -3743.51, 89697.57, 0.000, 0.000, 0.000, 19:25:42.568, 1579559142568
100, 45059.80, 102414.39, -33222.78, 85805.69, -9521.28, -48724.84, -63019.98, -41329.34, -28871.95, 34038.49, -64252.68, -23103.19, -45338.46, -22445.22, -9876.95, -70867.14, 0.000, 0.000, 0.000, 19:25:42.569, 1579559142569
101, 27788.98, 95726.33, -25158.23, 106859.44, 1477.72, -32647.94, -55681.14, -31107.99, -16107.25, 33357.14, -53540.27, -15495.70, -34637.00, -11977.07, 2840.86, 186783.78, 0.000, 0.000, 0.000, 19:25:42.569, 1579559142569
102, 40830.45, 101218.93, -32312.06, 106881.73, 1497.54, -35944.46, -55281.27, -37078.28, -28427.35, 34901.87, -63177.76, -25603.10, -45606.81, -22977.39, -10150.89, -86906.93, 0.000, 0.000, 0.000, 19:25:42.569, 1579559142569
103, 45202.98, 104426.25, -28434.77, 108358.48, -4503.21, -39200.13, -61068.52, -36833.53, -18928.15, 33228.08, -56946.92, -16745.48, -36628.92, -13532.33, 814.97, 107522.21, -0.016, -0.296, 0.966, 19:25:42.569, 1579559142569
104, 36211.81, 98844.46, -26463.48, 119874.59, 9962.22, -24260.63, -51040.68, -31321.57, -19341.39, 34567.17, -55716.01, -20279.20, -37857.35, -15323.30, -822.30, 90790.84, 0.000, 0.000, 0.000, 19:25:42.570, 1579559142570
105, 51497.19, 108979.93, -33427.61, 109318.69, -1756.04, -38596.48, -60417.05, -40749.33, -27188.71, 34394.57, -63926.12, -23775.35, -44050.57, -20954.87, -7599.37, -71101.01, 0.000, 0.000, 0.000, 19:25:42.570, 1579559142570
106, 33280.90, 99754.65, -23398.05, 122294.37, 10106.30, -22893.68, -53286.82, -30140.83, -14454.74, 33623.73, -53229.20, -15753.42, -33285.70, -10486.48, 5146.44, 186895.36, 0.000, 0.000, 0.000, 19:25:42.570, 1579559142570
107, 43258.20, 104894.27, -29473.26, 117757.23, 10995.11, -26421.33, -52878.55, -36023.39, -27226.90, 35301.94, -63302.20, -25863.40, -44621.52, -21892.68, -8212.72, -86526.10, 0.000, 0.000, 0.000, 19:25:42.571, 1579559142571
108, 42134.76, 105949.92, -27010.76, 116107.65, 6053.68, -29054.85, -58881.22, -35673.02, -17787.29, 33710.41, -57084.72, -16654.24, -35625.64, -12488.37, 2678.92, 107934.96, -0.026, -0.302, 0.970, 19:25:42.571, 1579559142571
109, 35757.80, 99152.96, -22980.77, 125554.53, 22184.42, -13839.73, -48537.95, -29939.24, -18060.59, 35194.12, -55753.88, -20024.17, -36642.51, -14135.71, 1162.67, 92047.81, 0.000, 0.000, 0.000, 19:25:42.571, 1579559142571
110, 52672.80, 109544.48, -30041.91, 113852.52, 11528.78, -27694.97, -57569.00, -39196.13, -25515.03, 34980.81, -63621.40, -23238.93, -42489.26, -19406.70, -5263.46, -70249.70, 0.000, 0.000, 0.000, 19:25:42.571, 1579559142571
111, 36664.08, 102652.62, -18696.74, 126848.36, 25517.51, -10571.46, -49851.23, -28461.64, -12719.73, 34116.27, -52939.32, -15354.84, -31739.92, -8953.15, 7455.69, 187095.16, 0.000, 0.000, 0.000, 19:25:42.572, 1579559142572
112, 39480.87, 107583.79, -23388.15, 122161.13, 27362.51, -13795.85, -49433.52, -34504.41, -25627.35, 35832.73, -63155.75, -25771.29, -43289.23, -20572.23, -6139.98, -85727.66, 0.000, 0.000, 0.000, 19:25:42.572, 1579559142572
113, 37861.53, 108822.50, -21262.05, 119799.80, 19008.93, -17288.31, -55651.53, -34274.41, -16418.43, 33997.25, -57242.75, -16914.35, -34720.91, -11534.59, 4323.21, 107098.07, -0.016, -0.308, 0.970, 19:25:42.572, 1579559142572
114, 31804.38, 104434.50, -13339.63, 128917.05, 22206.10, -4679.07, -45976.53, -28956.30, -17220.95, 35381.25, -56412.79, -20679.12, -36421.59, -13821.33, 2111.95, 91632.18, 0.000, 0.000, 0.000, 19:25:42.573, 1579559142573
115, 46504.68, 116097.95, -22215.58, 116215.66, 847.49, -23145.23, -56341.19, -38827.93, -25151.14, 35095.84, -64698.87, -23884.60, -42844.58, -19671.81, -4965.84, -70519.15, 0.000, 0.000, 0.000, 19:25:42.573, 1579559142573
116, 33073.68, 114744.15, -9387.02, 129634.84, 4918.30, -10894.69, -49360.72, -28463.43, -12511.03, 34088.55, -54165.29, -16120.88, -32340.40, -9450.72, 7506.48, 187218.55, 0.000, 0.000, 0.000, 19:25:42.573, 1579559142573
117, 44861.38, 115904.27, -12899.95, 125064.04, -3626.93, -17397.28, -49894.86, -34985.73, -25803.99, 35670.50, -64754.07, -26675.89, -44359.85, -21480.05, -6501.83, -85008.35, 0.000, 0.000, 0.000, 19:25:42.574, 1579559142574
118, 45412.29, 112156.18, -13966.40, 121484.25, -14728.73, -24655.29, -57257.77, -35337.88, -17252.93, 33709.36, -59471.89, -17954.35, -36400.60, -13083.97, 3348.78, 106795.00, -0.020, -0.308, 0.970, 19:25:42.574, 1579559142574
119, 39428.79, 100744.56, -5443.10, 128746.89, -7483.72, -12912.54, -48127.21, -30024.31, -18019.73, 34945.90, -58491.92, -21343.77, -38011.91, -15261.73, 1274.03, 92182.37, 0.000, 0.000, 0.000, 19:25:42.574, 1579559142574
120, 54280.67, 112079.20, -15939.30, 114952.18, -24717.03, -30405.28, -58626.97, -39852.78, -26169.82, 34731.28, -66919.02, -24891.64, -44619.02, -21256.04, -5906.87, -72214.02, 0.000, 0.000, 0.000, 19:25:42.574, 1579559142574
121, 38476.00, 110935.46, -6052.18, 127611.71, -18189.11, -17228.01, -52260.68, -29408.72, -13593.28, 33572.01, -56353.66, -17286.77, -34133.17, -11032.26, 6607.29, 187079.78, 0.000, 0.000, 0.000, 19:25:42.575, 1579559142575
122, 49390.65, 111703.06, -12527.75, 122839.48, -24993.61, -22561.45, -53180.81, -35773.56, -27097.76, 35151.92, -67003.95, -28017.08, -46336.98, -23220.15, -7572.90, -86034.01, 0.000, 0.000, 0.000, 19:25:42.575, 1579559142575
123, 47401.39, 111447.25, -16375.27, 119218.16, -33349.38, -28988.13, -60678.75, -35986.06, -18243.13, 33148.24, -61224.27, -19299.10, -38006.41, -14465.83, 2616.50, 106486.19, -0.018, -0.304, 0.972, 19:25:42.575, 1579559142575
124, 44153.70, 104477.08, -12688.82, 127980.16, -24297.42, -16293.17, -51399.62, -30426.47, -18981.10, 34302.33, -60086.07, -23066.73, -39539.77, -16564.21, 619.93, 92874.29, 0.000, 0.000, 0.000, 19:25:42.576, 1579559142576
125, 60099.88, 113124.50, -24972.53, 114860.58, -38763.87, -33428.22, -61846.31, -40196.21, -27535.87, 34189.54, -68779.09, -26804.05, -46474.86, -22896.30, -6962.64, -72398.15, 0.000, 0.000, 0.000, 19:25:43.026, 1579559143026
126, 40594.41, 102573.98, -17653.88, 125566.64, -29922.28, -21217.73, -56006.21, -30169.45, -15429.77, 32850.65, -58759.07, -18921.89, -36398.70, -13080.78, 5030.84, 187108.13, 0.000, 0.000, 0.000, 19:25:43.026, 1579559143026
127, 51413.37, 107545.37, -25204.72, 119627.70, -34254.94, -27388.42, -56629.89, -36378.87, -28573.15, 34512.55, -69098.76, -28793.79, -48167.63, -24856.61, -8806.81, -85816.41, 0.000, 0.000, 0.000, 19:25:43.027, 1579559143027
0, 49365.91, 108611.55, -26301.12, 116298.54, -40184.79, -34640.42, -63841.16, -36497.22, -19816.92, 32558.02, -63191.11, -19515.40, -39861.18, -16172.85, 1227.36, 105388.54, -0.016, -0.308, 0.974, 19:25:43.027, 1579559143027
1, 42808.75, 100422.77, -21717.20, 124860.06, -29677.77, -22606.17, -54542.01, -31226.59, -20554.64, 33633.68, -61741.59, -22641.58, -41312.77, -18220.45, -773.48, 92265.31, 0.000, 0.000, 0.000, 19:25:43.027, 1579559143027
2, 56642.80, 109270.55, -31312.22, 111721.70, -42716.73, -39957.96, -64798.35, -40878.97, -28992.02, 33553.59, -69228.73, -25894.79, -47876.68, -24314.81, -8177.50, -73691.42, 0.000, 0.000, 0.000, 19:25:43.028, 1579559143028
3, 38503.00, 99408.55, -21427.25, 122857.16, -31420.34, -27263.65, -58495.32, -30769.54, -16537.45, 32253.25, -57498.23, -17685.13, -37204.23, -14035.31, 4186.77, 187083.47, 0.000, 0.000, 0.000, 19:25:43.030, 1579559143030
4, 49712.07, 104065.45, -27393.58, 117306.42, -33739.78, -32451.60, -58688.41, -36900.38, -29533.85, 33954.76, -66230.67, -27512.05, -48554.76, -25538.86, -9441.51, -86007.52, 0.000, 0.000, 0.000, 19:25:43.033, 1579559143033
5, 48119.26, 105964.81, -27146.60, 114392.73, -36788.89, -38738.01, -65424.92, -36787.75, -20292.25, 32138.16, -58424.46, -18044.76, -39490.90, -16202.49, 1200.58, 105431.70, -0.022, -0.302, 0.970, 19:25:43.033, 1579559143033
6, 44671.97, 100600.95, -21596.28, 124116.73, -16521.38, -25118.62, -54877.66, -31243.16, -20199.38, 33119.74, -55126.60, -20961.02, -39952.20, -17334.45, 133.35, 93293.56, 0.000, 0.000, 0.000, 19:25:43.034, 1579559143034
7, 63394.98, 111993.55, -30789.79, 112352.42, -25391.42, -41064.24, -64102.39, -40768.95, -28354.21, 33138.96, -61708.63, -24491.43, -46177.05, -23108.26, -6990.53, -72819.57, 0.000, 0.000, 0.000, 19:25:43.034, 1579559143034
8, 48529.05, 101783.80, -20885.78, 124160.67, -12602.11, -27618.11, -57269.13, -30705.98, -15545.57, 31438.02, -49391.79, -16512.69, -35147.78, -12463.44, 5769.77, 187243.03, 0.000, 0.000, 0.000, 19:25:43.035, 1579559143035
9, 60657.45, 107442.80, -26904.46, 119420.85, -8737.07, -31715.63, -56626.31, -36719.89, -28216.33, 32678.03, -57871.88, -26686.93, -46246.25, -23694.57, -7538.33, -85353.82, 0.000, 0.000, 0.000, 19:25:43.035, 1579559143035
10, 56919.57, 109978.91, -26986.73, 116708.27, -10298.10, -37666.22, -63135.52, -36859.81, -19277.28, 31214.52, -50556.89, -17996.91, -37556.27, -14708.14, 2727.31, 105101.84, -0.022, -0.304, 0.972, 19:25:43.035, 1579559143035
11, 48696.63, 105672.65, -22034.04, 126532.51, 3807.73, -24083.71, -52919.70, -31497.70, -19493.07, 32098.15, -47915.41, -21506.69, -38435.68, -16227.30, 1224.23, 93236.61, 0.000, 0.000, 0.000, 19:25:43.035, 1579559143035
12, 62146.57, 117341.24, -31461.35, 114857.07, -8520.93, -39877.46, -62260.58, -41046.61, -27819.94, 32479.81, -55080.33, -25267.89, -44962.68, -22255.50, -6208.42, -73558.09, 0.000, 0.000, 0.000, 19:25:43.036, 1579559143036
13, 41732.65, 106974.64, -21712.82, 126797.15, 1919.66, -26433.73, -55623.05, -30966.82, -15309.42, 30981.01, -43472.04, -17567.44, -34353.54, -11973.90, 6168.61, 187247.11, 0.000, 0.000, 0.000, 19:25:43.036, 1579559143036
14, 49802.68, 111247.58, -27983.06, 121785.35, 2274.71, -30546.99, -55262.14, -37042.58, -28144.85, 32585.91, -52522.44, -27744.17, -45743.45, -23449.42, -7429.16, -85480.22, -0.026, -0.310, 0.964, 19:25:43.036, 1579559143036
15, 47235.11, 113052.88, -28178.64, 118839.77, -4917.43, -36475.48, -61950.36, -37064.29, -19241.41, 30850.88, -45651.18, -18745.29, -37222.54, -14552.59, 2722.69, 105309.21, 0.000, 0.000, 0.000, 19:25:43.037, 1579559143037
16, 40268.12, 107926.63, -23253.21, 128308.17, 9060.10, -22866.19, -51838.19, -31773.52, -19269.86, 31746.61, -43255.32, -21848.79, -38063.10, -15972.53, 1371.53, 93788.30, 0.000, 0.000, 0.000, 19:25:43.037, 1579559143037
17, 55737.11, 120663.14, -32539.74, 116782.70, -3423.33, -38470.75, -60945.11, -40957.09, -27366.60, 32159.73, -50606.94, -25165.00, -44443.85, -21819.97, -5807.36, -73395.98, 0.000, 0.000, 0.000, 19:25:43.037, 1579559143037
18, 39036.89, 111912.90, -22702.02, 129025.38, 6659.28, -24921.52, -54276.02, -30936.27, -14601.12, 30632.46, -39140.61, -17210.44, -33698.05, -11355.71, 6847.90, 187338.13, 0.000, 0.000, 0.000, 19:25:43.038, 1579559143038
19, 48500.51, 119790.08, -28757.80, 124893.03, 6756.87, -28805.83, -53661.86, -36922.51, -27206.30, 32544.52, -48372.06, -27133.65, -44976.38, -22706.58, -6515.40, -85315.73, -0.022, -0.310, 0.960, 19:25:43.038, 1579559143038
20, 43821.82, 123424.65, -28773.98, 122844.09, -873.44, -34602.67, -60376.30, -36797.56, -18380.89, 30775.06, -41898.23, -18158.65, -36584.46, -13932.20, 3575.90, 104371.38, 0.000, 0.000, 0.000, 19:25:43.038, 1579559143038
21, 35351.79, 115372.19, -23930.09, 132642.72, 12720.47, -20956.01, -50460.58, -31666.70, -18510.24, 31703.67, -39969.37, -21422.16, -37624.91, -15548.99, 2063.98, 93336.30, 0.000, 0.000, 0.000, 19:25:43.039, 1579559143039
22, 48913.82, 126291.35, -33114.89, 120678.12, -123.27, -36715.51, -59855.38, -40763.21, -26680.05, 32144.33, -47678.66, -24736.36, -44149.21, -21551.33, -5276.64, -73578.52, 0.000, 0.000, 0.000, 19:25:43.039, 1579559143039
23, 34620.97, 113295.53, -23331.00, 131931.44, 9634.18, -23455.63, -53407.91, -30770.97, -13985.02, 30483.51, -36545.35, -16918.86, -33561.30, -11242.23, 7197.66, 187396.30, 0.000, 0.000, 0.000, 19:25:43.039, 1579559143039
24, 45976.71, 116894.05, -29571.67, 126343.30, 9270.68, -27898.71, -52953.54, -36875.79, -26675.85, 32452.99, -46123.16, -26939.86, -45010.51, -22761.92, -6349.30, -84983.54, -0.026, -0.302, 0.958, 19:25:43.040, 1579559143040
25, 44189.60, 115325.77, -29601.13, 122247.37, 946.95, -34570.82, -59932.38, -36807.58, -18110.21, 30668.60, -40114.54, -18031.35, -36931.72, -14301.43, 3359.94, 104258.61, 0.000, 0.000, 0.000, 19:25:43.040, 1579559143040
26, 34103.89, 107366.71, -24933.24, 130271.64, 13713.46, -21878.31, -50287.76, -31872.04, -18253.71, 31605.01, -38365.63, -21174.63, -38037.50, -15992.96, 1777.23, 93633.96, 0.000, 0.000, 0.000, 19:25:43.040, 1579559143040
27, 48769.87, 118445.16, -33967.45, 117509.11, 228.46, -38279.66, -59742.30, -41003.45, -26616.99, 32106.69, -46370.93, -24524.94, -44751.19, -22199.66, -5812.64, -75147.84, 0.000, 0.000, 0.000, 19:25:43.041, 1579559143041
28, 33042.89, 106078.91, -24329.54, 128093.44, 9199.96, -25709.51, -53523.24, -31098.25, -13880.50, 30416.57, -35244.39, -16394.29, -34052.32, -11788.56, 6662.29, 187323.75, 0.000, 0.000, 0.000, 19:25:43.041, 1579559143041
29, 45440.40, 112741.05, -30515.79, 122861.61, 8509.17, -30175.61, -52935.70, -37121.51, -26528.61, 32418.43, -44861.18, -26401.16, -45448.40, -23271.96, -6880.16, -85619.29, -0.020, -0.296, 0.962, 19:25:43.041, 1579559143041
30, 41697.49, 112891.23, -30544.87, 119376.26, -178.81, -36947.21, -59984.84, -37084.11, -17952.00, 30700.77, -38907.48, -17503.05, -37312.79, -14770.81, 2807.98, 104166.95, 0.000, 0.000, 0.000, 19:25:43.041, 1579559143041
31, 33951.18, 105277.27, -25837.01, 127999.05, 12452.27, -24023.03, -50270.08, -32073.41, -17912.80, 31637.17, -37081.59, -20632.69, -38265.05, -16326.21, 1353.55, 94381.71, 0.000, 0.000, 0.000, 19:25:43.042, 1579559143042
32, 47596.05, 116781.11, -34775.94, 115677.54, -1091.61, -40196.75, -59659.17, -41206.67, -26310.93, 32083.40, -45214.20, -24187.76, -45059.93, -22563.97, -6264.37, -74996.70, 0.000, 0.000, 0.000, 19:25:43.042, 1579559143042
33, 30777.46, 104951.65, -25013.93, 126667.98, 7746.80, -27515.38, -53506.05, -31325.10, -13531.79, 30436.95, -34152.88, -16061.34, -34354.94, -12127.45, 6271.81, 187403.67, 0.000, 0.000, 0.000, 19:25:43.042, 1579559143042
34, 42013.05, 112702.32, -30966.11, 121927.47, 7097.04, -31701.90, -52871.13, -37254.57, -26042.62, 32457.39, -43722.94, -25912.18, -45642.75, -23490.70, -7118.49, -85214.08, -0.024, -0.300, 0.968, 19:25:43.043, 1579559143043
35, 39950.19, 113496.56, -30758.46, 118943.22, -1452.60, -38164.69, -59828.87, -37176.56, -17369.50, 30642.36, -37738.04, -16835.49, -37468.94, -14884.25, 2667.59, 103162.15, 0.000, 0.000, 0.000, 19:25:43.043, 1579559143043
36, 34232.03, 105797.77, -25919.13, 127922.70, 11405.92, -24858.34, -49976.55, -32076.25, -17210.57, 31624.74, -35844.87, -19888.40, -38279.33, -16282.17, 1357.87, 94016.62, 0.000, 0.000, 0.000, 19:25:43.043, 1579559143043
37, 50404.93, 117377.45, -34749.96, 115838.13, -1942.75, -40787.55, -59292.98, -41211.03, -25570.35, 32133.47, -43998.69, -23257.55, -45030.54, -22475.15, -6230.44, -76214.30, 0.000, 0.000, 0.000, 19:25:43.044, 1579559143044
38, 34087.08, 105745.12, -25016.68, 126847.15, 6984.45, -27944.48, -53125.98, -31334.53, -12767.45, 30494.37, -32979.11, -15165.37, -34296.47, -12003.51, 6295.37, 187416.73, 0.000, 0.000, 0.000, 19:25:43.044, 1579559143044
39, 46330.89, 112605.36, -30940.98, 122126.13, 6440.39, -31991.80, -52475.41, -37245.89, -25295.22, 33012.18, -42607.32, -25050.70, -45579.47, -23366.31, -7112.10, -85208.34, -0.022, -0.306, 0.968, 19:25:43.044, 1579559143044
40, 43142.13, 112508.46, -30757.07, 118927.59, -2086.47, -38447.30, -59466.84, -37238.39, -16682.34, 31352.34, -36731.43, -16047.37, -37454.66, -14815.27, 2600.54, 103318.07, 0.000, 0.000, 0.000, 19:25:43.045, 1579559143045
41, 35406.21, 104994.16, -25989.20, 127671.10, 10732.12, -25192.67, -49683.77, -32112.37, -16600.62, 33596.10, -34979.16, -19189.51, -38325.48, -16299.29, 1205.88, 94616.77, 0.000, 0.000, 0.000, 19:25:43.045, 1579559143045
42, 48142.28, 116656.12, -34833.72, 115530.66, -2630.15, -41177.97, -59064.55, -41209.95, -25026.35, 34078.63, -43233.43, -22468.60, -45126.43, -22547.54, -6443.81, -75915.51, 0.000, 0.000, 0.000, 19:25:43.045, 1579559143045
43, 30785.75, 104242.14, -25122.09, 126404.12, 6258.11, -28405.80, -52961.99, -31268.44, -12269.77, 32161.61, -32314.05, -14447.70, -34445.85, -12126.20, 6015.06, 187500.00, 0.000, 0.000, 0.000, 19:25:43.046, 1579559143046
44, 42108.81, 111096.55, -31033.18, 121523.41, 5744.02, -32454.38, -52339.18, -37155.44, -24861.08, 34531.45, -42023.40, -24329.11, -45769.22, -23534.13, -7450.24, -84830.21, -0.022, -0.302, 0.966, 19:25:43.046, 1579559143046
45, 37854.33, 111320.45, -30955.42, 118127.63, -2936.82, -39124.85, -59513.04, -37280.61, -16479.43, 32290.85, -36371.56, -15392.08, -37846.69, -15178.22, 2043.84, 102512.27, 0.000, 0.000, 0.000, 19:25:43.046, 1579559143046
46, 29701.91, 103677.09, -26109.81, 126868.50, 9856.87, -25886.11, -49780.75, -32037.20, -16374.02, 33509.76, -34606.58, -18528.84, -38682.55, -16615.64, 695.21, 94615.71, 0.000, 0.000, 0.000, 19:25:43.047, 1579559143047
47, 42958.87, 115240.63, -34917.69, 114678.52, -3473.55, -41868.88, -59166.83, -41229.98, -24873.04, 33922.59, -42946.55, -21788.44, -45553.10, -22941.94, -7018.60, -75811.86, 0.000, 0.000, 0.000, 19:25:43.047, 1579559143047
48, 22785.75, 103019.79, -25314.18, 125423.05, 5292.94, -29227.39, -53214.81, -31423.60, -12285.81, 31999.18, -32218.32, -13936.49, -35046.89, -12707.95, 5301.81, 187500.00, 0.000, 0.000, 0.000, 19:25:43.047, 1579559143047
49, 30973.21, 110127.31, -31224.92, 120525.05, 4711.52, -33325.27, -52682.14, -37347.28, -24879.32, 34357.36, -41921.81, -23794.41, -46335.37, -24093.95, -8082.03, -84322.38, -0.018, -0.300, 0.968, 19:25:43.048, 1579559143048
50, 27996.54, 110565.74, -30993.44, 117330.63, -3819.13, -39840.31, -59746.86, -37375.11, -16376.88, 32161.05, -36171.43, -14758.72, -38284.60, -15606.48, 1591.62, 102472.13, 0.000, 0.000, 0.000, 19:25:43.048, 1579559143048
51, 20735.47, 103251.82, -26156.46, 126257.71, 9097.54, -26464.42, -49961.73, -32200.35, -16290.44, 33345.83, -34457.11, -18004.08, -39127.31, -17047.76, 295.18, 94893.12, 0.000, 0.000, 0.000, 19:25:43.048, 1579559143048
52, 34670.06, 115008.95, -34895.36, 114209.72, -4162.63, -42391.27, -59328.99, -41356.27, -24837.37, 33771.09, -42856.59, -21392.85, -46015.64, -23390.81, -7401.85, -76977.73, 0.000, 0.000, 0.000, 19:25:43.049, 1579559143049
53, 17224.07, 102795.76, -25203.87, 125103.05, 4718.81, -29614.79, -53338.86, -31540.57, -12078.82, 31751.61, -31983.33, -13445.58, -35320.80, -12955.34, 5140.54, 187500.00, 0.000, 0.000, 0.000, 19:25:43.049, 1579559143049
54, 28036.82, 109803.01, -31087.34, 120329.94, 4347.26, -33553.97, -52677.70, -37456.79, -24667.36, 33931.22, -41764.10, -23407.19, -46631.91, -24366.08, -8237.98, -84813.71, -0.014, -0.308, 0.964, 19:25:43.049, 1579559143049
55, 24607.64, 109984.26, -30857.65, 117084.76, -4152.26, -40073.41, -59768.74, -37467.25, -16154.92, 31796.41, -36089.50, -14527.09, -38604.08, -15909.79, 1429.75, 102467.55, 0.000, 0.000, 0.000, 19:25:43.050, 1579559143050
56, 16493.96, 102463.37, -26100.02, 125932.59, 8817.43, -26666.28, -49975.93, -32372.57, -16043.14, 32887.44, -34395.64, -17902.21, -39423.52, -17332.50, 169.09, 95265.99, 0.000, 0.000, 0.000, 19:25:43.050, 1579559143050
57, 30478.35, 114500.12, -34852.74, 113868.19, -4397.53, -42590.46, -59301.90, -41492.30, -24583.81, 33403.27, -42815.77, -21379.42, -46273.34, -23641.48, -7504.44, -76727.99, 0.000, 0.000, 0.000, 19:25:43.507, 1579559143507
58, 13564.22, 102234.15, -25054.31, 124816.59, 4550.48, -29761.32, -53253.59, -31618.02, -11805.19, 31502.90, -31969.81, -13595.18, -35552.62, -13172.06, 5054.22, 187500.00, 0.000, 0.000, 0.000, 19:25:43.508, 1579559143508
59, 25081.56, 109407.54, -30758.28, 120113.02, 4270.50, -33596.35, -52532.39, -37511.70, -24334.63, 33779.32, -41713.20, -23583.44, -46639.15, -24502.58, -8272.54, -84447.37, -0.014, -0.308, 0.964, 19:25:43.508, 1579559143508
60, 22978.80, 109456.45, -30359.08, 116849.20, -4198.66, -40103.05, -59594.98, -37527.55, -15832.52, 31465.64, -36025.33, -14746.96, -38423.23, -15985.63, 1406.22, 101787.38, 0.000, 0.000, 0.000, 19:25:43.509, 1579559143509
61, 16507.66, 101717.53, -24793.40, 125733.99, 8943.45, -26473.32, -49714.86, -32335.33, -15652.17, 32064.56, -34284.65, -18102.28, -39161.33, -17306.42, 211.18, 95010.31, 0.000, 0.000, 0.000, 19:25:43.509, 1579559143509
62, 31606.17, 113467.66, -33198.08, 113636.69, -4065.18, -42156.64, -58980.84, -41487.86, -24138.18, 32449.70, -42655.73, -21497.82, -45920.18, -23552.23, -7411.79, -77053.16, 0.000, 0.000, 0.000, 19:25:43.509, 1579559143509
63, 15347.62, 100779.41, -22907.61, 124543.18, 5100.76, -29097.70, -52895.96, -31581.47, -11300.66, 30485.83, -31747.72, -13674.08, -35127.40, -13003.10, 5229.32, 187500.00, 0.000, 0.000, 0.000, 19:25:43.510, 1579559143510
64, 27052.72, 107636.21, -28392.53, 119734.98, 5166.69, -32580.01, -52086.80, -37459.91, -23809.48, 32609.34, -41439.71, -23582.30, -46330.52, -24293.10, -8083.55, -83347.53, -0.014, -0.304, 0.962, 19:25:43.510, 1579559143510
65, 24886.23, 107708.74, -28532.52, 116382.40, -3076.54, -38894.29, -59126.29, -37487.50, -15311.88, 30642.92, -35762.61, -14687.46, -38229.89, -15778.92, 1584.02, 102273.35, 0.000, 0.000, 0.000, 19:25:43.510, 1579559143510
66, 18230.15, 100049.83, -22864.09, 125258.44, 10319.15, -25105.48, -49220.53, -32262.75, -15108.59, 31568.98, -34008.22, -18021.12, -38974.09, -17080.40, 391.96, 95732.52, 0.000, 0.000, 0.000, 19:25:43.511, 1579559143511
67, 32882.39, 111928.95, -32054.01, 113098.08, -2511.37, -40730.67, -58463.15, -41430.19, -23662.09, 32119.46, -42453.74, -21419.41, -45805.27, -23397.43, -7337.97, -76804.88, 0.000, 0.000, 0.000, 19:25:43.515, 1579559143515
68, 16036.86, 99472.99, -22048.83, 124022.18, 6692.25, -27776.69, -52383.64, -31556.08, -10822.38, 30234.27, -31556.26, -13604.59, -35015.21, -12841.79, 5290.28, 187500.00, 0.000, 0.000, 0.000, 19:25:43.520, 1579559143520
69, 27200.57, 106943.10, -27401.29, 119367.30, 6826.94, -31325.43, -51522.94, -37411.72, -23303.79, 32483.23, -41223.63, -23465.84, -46172.22, -24096.25, -7986.23, -83063.53, -0.014, -0.304, 0.956, 19:25:43.520, 1579559143520
70, 24503.52, 107939.70, -27980.63, 116173.55, -1520.88, -37824.94, -58609.09, -37461.68, -14918.34, 30459.01, -35639.05, -14655.14, -38138.71, -15646.58, 1592.20, 101859.58, 0.000, 0.000, 0.000, 19:25:43.521, 1579559143521
71, 17278.35, 100582.66, -22153.66, 125334.63, 11852.93, -24112.59, -48670.36, -32299.21, -14709.15, 31436.28, -33877.53, -18034.77, -38871.63, -16929.90, 443.62, 95781.27, 0.000, 0.000, 0.000, 19:25:43.522, 1579559143522
72, 31542.98, 112543.64, -31482.34, 113355.02, -1053.15, -39834.50, -57921.84, -41393.82, -23330.37, 32025.71, -42376.78, -21467.42, -45735.04, -23283.41, -7298.13, -76595.31, 0.000, 0.000, 0.000, 19:25:43.522, 1579559143522
73, 14340.66, 99714.75, -21682.58, 124196.70, 8019.52, -27010.63, -51934.66, -31559.32, -10571.12, 30042.17, -31574.54, -13811.95, -35034.48, -12809.78, 5259.50, 187500.00, 0.000, 0.000, 0.000, 19:25:43.522, 1579559143522
74, 25254.95, 106667.86, -27128.51, 119382.70, 8040.91, -30739.44, -51131.96, -37464.36, -23105.98, 32377.24, -41313.93, -23753.53, -46257.18, -24135.17, -8056.22, -82811.96, -0.016, -0.298, 0.960, 19:25:43.523, 1579559143523
75, 22281.51, 106756.27, -27776.09, 115931.01, -441.27, -37410.47, -58273.23, -37389.24, -14777.27, 30321.86, -35790.91, -14967.64, -38275.35, -15737.42, 1491.17, 101682.44, 0.000, 0.000, 0.000, 19:25:43.523, 1579559143523
76, 14798.69, 99109.60, -22025.56, 124794.48, 12754.87, -23925.96, -48426.50, -32314.94, -14579.39, 31293.13, -34051.68, -18326.22, -39027.57, -17049.87, 331.48, 95907.69, 0.000, 0.000, 0.000, 19:25:43.523, 1579559143523
77, 28831.20, 110979.36, -31387.82, 112603.63, -296.00, -39809.24, -57694.90, -41381.50, -23238.28, 31940.55, -42582.48, -21757.37, -45920.09, -23462.13, -7470.60, -77775.30, 0.000, 0.000, 0.000, 19:25:43.524, 1579559143524
78, 11390.34, 98254.55, -21616.33, 123345.44, 8592.26, -27161.53, -51756.11, -31545.33, -10481.27, 29940.54, -31768.44, -13987.86, -35209.34, -12973.71, 5088.26, 187500.00, 0.000, 0.000, 0.000, 19:25:43.524, 1579559143524
79, 22045.81, 105457.07, -27051.67, 118509.52, 8449.88, -30977.79, -50985.42, -37510.70, -23069.59, 32301.40, -41527.93, -23959.75, -46478.39, -24359.27, -8282.77, -84470.59, -0.018, -0.294, 0.964, 19:25:43.524, 1579559143524
80, 18847.08, 105625.94, -27749.67, 115005.91, -252.24, -37803.93, -58232.35, -37470.87, -14815.58, 30291.04, -36037.74, -15202.54, -38524.93, -16009.41, 1207.49, 100436.51, 0.000, 0.000, 0.000, 19:25:43.525, 1579559143525
81, 11160.92, 97777.41, -21924.76, 123909.02, 12893.60, -24292.17, -48343.18, -32334.17, -14602.21, 31333.66, -34263.50, -18514.53, -39265.51, -17332.03, 53.02, 94457.55, 0.000, 0.000, 0.000, 19:25:43.525, 1579559143525
82, 25317.69, 109807.16, -31479.46, 111649.06, -390.60, -40357.55, -57727.94, -41467.34, -23341.55, 32023.28, -42852.05, -21930.08, -46214.33, -23825.60, -7816.25, -80833.90, 0.000, 0.000, 0.000, 19:25:43.525, 1579559143525
83, 7873.49, 97138.63, -21731.08, 122461.20, 8381.10, -27781.23, -51795.81, -31573.89, -10427.80, 30022.57, -31849.60, -14004.42, -35318.91, -13166.79, 4910.88, 187404.73, 0.000, 0.000, 0.000, 19:25:43.526, 1579559143526
84, 18813.82, 104486.04, -27211.59, 117713.73, 8148.46, -31628.59, -51000.62, -37585.30, -23084.23, 32365.30, -41670.07, -23976.07, -46669.34, -24647.09, -8550.37, -87048.91, -0.012, -0.304, 0.966, 19:25:43.526, 1579559143526
85, 15917.21, 104903.77, -27976.67, 114297.20, -687.58, -38536.06, -58291.94, -37539.20, -14713.01, 30328.16, -36050.66, -15056.87, -38619.72, -16205.60, 1020.31, 98031.41, 0.000, 0.000, 0.000, 19:25:43.526, 1579559143526
86, 8496.50, 97692.32, -21619.01, 123529.46, 12557.50, -24845.15, -48234.57, -32321.52, -14370.88, 31310.03, -34139.02, -18329.46, -39251.92, -17402.04, -13.41, 92799.32, 0.000, 0.000, 0.000, 19:25:43.526, 1579559143526
87, 23128.20, 110507.89, -31141.48, 111512.27, -754.86, -40851.86, -57613.21, -41500.17, -23041.45, 31927.68, -42609.78, -21699.07, -46142.16, -23822.67, -7832.92, -82616.09, 0.000, 0.000, 0.000, 19:25:43.527, 1579559143527
88, 6199.08, 98619.72, -21123.96, 122687.47, 8143.79, -28062.37, -51600.72, -31585.47, -9939.66, 29911.17, -31423.53, -13734.07, -35108.71, -13004.38, 5050.06, 187365.84, 0.000, 0.000, 0.000, 19:25:43.527, 1579559143527
89, 17888.64, 106069.98, -26288.62, 118311.34, 8073.38, -31667.55, -50652.45, -37570.89, -22546.63, 32324.42, -41184.50, -23726.22, -46418.20, -24443.40, -8368.78, -87556.70, -0.014, -0.302, 0.968, 19:25:43.527, 1579559143527
90, 15928.55, 106112.58, -27345.62, 114939.10, -735.26, -38522.89, -57920.23, -37525.79, -14214.52, 30253.49, -35592.65, -14833.78, -38400.39, -16014.42, 1149.17, 97332.61, 0.000, 0.000, 0.000, 19:25:43.528, 1579559143528
91, 9427.38, 98159.13, -21134.71, 124101.69, 12568.61, -24771.97, -47822.83, -32321.07, -13839.93, 31237.01, -33677.06, -18104.09, -39030.08, -17186.84, 133.53, 92461.20, 0.000, 0.000, 0.000, 19:25:43.528, 1579559143528
92, 24963.43, 110502.82, -30838.21, 111917.13, -745.54, -40823.20, -57175.63, -41465.48, -22582.55, 31836.42, -42247.93, -21535.28, -45989.99, -23683.73, -7773.49, -84868.34, 0.000, 0.000, 0.000, 19:25:43.528, 1579559143528
93, 8625.56, 97812.35, -21141.58, 122745.59, 7975.33, -28275.65, -51264.95, -31563.50, -9521.93, 29874.11, -31127.53, -13496.68, -34968.66, -12856.95, 5083.88, 187201.78, 0.000, 0.000, 0.000, 19:25:43.529, 1579559143529
94, 20485.64, 105032.99, -26531.92, 118070.25, 7750.20, -32137.43, -50374.35, -37511.95, -22188.51, 32137.02, -40981.81, -23583.41, -46353.25, -24382.04, -8426.58, -88986.59, -0.016, -0.306, 0.962, 19:25:43.529, 1579559143529
95, 18276.42, 105276.60, -27587.08, 114435.05, -1279.44, -39284.48, -57754.98, -37334.83, -13864.25, 30130.64, -35388.38, -14733.33, -38343.57, -15977.14, 988.44, 96662.30, 0.000, 0.000, 0.000, 19:25:43.529, 1579559143529
96, 11105.73, 98311.73, -20649.52, 123535.07, 11812.45, -25774.27, -47649.11, -32077.19, -13348.01, 30939.66, -33276.20, -17900.46, -38860.81, -17076.13, 0.20, 92365.20, 0.000, 0.000, 0.000, 19:25:43.529, 1579559143529
97, 25941.23, 112636.41, -30356.26, 111832.81, 363.80, -41904.49, -56988.48, -41034.11, -21888.97, 31474.88, -41515.93, -21429.02, -45623.11, -23423.35, -7815.18, -86068.14, 0.000, 0.000, 0.000, 19:25:43.530, 1579559143530
98, 8915.98, 102965.34, -20239.84, 123315.04, 10480.20, -29041.78, -50840.74, -30922.81, -8651.67, 29781.49, -30076.53, -13145.80, -34428.68, -12451.67, 5081.33, 187090.73, 0.000, 0.000, 0.000, 19:25:43.530, 1579559143530
99, 20257.16, 109758.51, -24607.71, 119682.50, 9149.95, -32373.57, -49817.75, -36801.18, -21204.65, 31745.64, -39708.36, -23461.91, -45768.28, -23902.96, -8306.15, -90297.42, -0.018, -0.302, 0.962, 19:25:43.530, 1579559143530
100, 17670.33, 111380.84, -26537.11, 116619.06, 2046.32, -39015.01, -57102.22, -36506.57, -12966.27, 30026.08, -34183.39, -14901.91, -37887.08, -15590.54, 979.83, 94542.71, 0.000, 0.000, 0.000, 19:25:43.531, 1579559143531
101, 10145.86, 102095.68, -19044.13, 125750.51, 12572.52, -25201.93, -46906.34, -31185.00, -12419.37, 30692.77, -32053.45, -17956.14, -38406.15, -16638.19, 58.05, 91126.13, 0.000, 0.000, 0.000, 19:25:43.531, 1579559143531
102, 24819.82, 115459.95, -29074.70, 113957.41, 5967.04, -40939.03, -56035.24, -40156.81, -20884.40, 31042.01, -40331.84, -22401.90, -45165.41, -22909.42, -7643.18, -87389.46, 0.000, 0.000, 0.000, 19:25:43.531, 1579559143531
103, 7946.96, 103425.20, -18820.48, 124993.50, 17325.82, -28141.78, -49872.91, -30100.89, -7587.46, 28969.38, -28994.62, -13667.13, -33969.18, -11907.53, 5297.18, 187120.11, 0.000, 0.000, 0.000, 19:25:43.532, 1579559143532
104, 19257.93, 112579.41, -22368.11, 121043.03, 19248.65, -31104.98, -48372.13, -35882.93, -19856.42, 30362.14, -38458.81, -24321.65, -45095.02, -23129.05, -7916.54, -90464.80, -0.018, -0.300, 0.972, 19:25:43.532, 1579559143532
105, 17117.86, 114468.89, -24901.47, 118210.21, 16627.17, -37602.67, -55421.13, -35777.65, -11476.28, 29500.93, -32822.13, -15937.35, -37022.38, -14664.84, 1578.41, 94003.90, 0.000, 0.000, 0.000, 19:25:43.532, 1579559143532
106, 9990.13, 104595.23, -16443.06, 127682.48, 27726.76, -23414.70, -44964.69, -30254.87, -10950.68, 30098.12, -30741.02, -18817.15, -37613.98, -15779.84, 619.77, 91285.28, 0.000, 0.000, 0.000, 19:25:43.532, 1579559143532
107, 25053.53, 114563.48, -27020.73, 115094.72, 20010.11, -39161.20, -54145.51, -39506.57, -19618.24, 31054.84, -39198.32, -23484.98, -44567.75, -22288.64, -7305.58, -88642.01, 0.000, 0.000, 0.000, 19:25:43.533, 1579559143533
108, 8213.17, 103590.09, -17247.97, 125700.26, 29462.79, -26609.44, -47995.96, -29473.84, -6356.46, 29342.86, -27872.74, -14580.85, -33362.79, -11313.80, 5703.94, 187053.77, 0.000, 0.000, 0.000, 19:25:43.533, 1579559143533
109, 19692.71, 109013.68, -21392.05, 121226.65, 28243.02, -30027.76, -46786.13, -35487.53, -18926.32, 30975.83, -37624.58, -25328.28, -44811.11, -22864.87, -7766.43, -91266.69, -0.020, -0.300, 0.968, 19:25:43.533, 1579559143533
110, 17423.21, 110039.78, -24443.00, 117446.95, 25653.90, -37008.05, -54011.54, -35553.80, -10629.91, 29656.56, -32073.63, -16864.03, -36812.34, -14476.13, 1701.62, 93139.78, 0.000, 0.000, 0.000, 19:25:43.534, 1579559143534
111, 10147.09, 102182.25, -16962.45, 126781.28, 34818.07, -23292.95, -43647.59, -30309.17, -10037.25, 30295.64, -30005.21, -19694.46, -37389.39, -15556.88, 848.43, 91200.73, 0.000, 0.000, 0.000, 19:25:43.534, 1579559143534
112, 25203.42, 113305.28, -27605.92, 114532.86, 26392.60, -39245.84, -52796.20, -39591.00, -18782.28, 30997.29, -38599.09, -24108.77, -44431.78, -22124.67, -7131.30, -88674.71, 0.000, 0.000, 0.000, 19:25:43.534, 1579559143534
113, 8479.49, 102129.48, -18493.72, 124894.88, 33254.93, -26952.60, -46916.24, -29839.94, -5662.19, 29279.46, -27503.93, -15453.10, -33475.47, -11324.56, 5683.33, 187128.13, 0.000, 0.000, 0.000, 19:25:43.535, 1579559143535
114, 19961.34, 108345.95, -22983.87, 120708.13, 29871.56, -30481.12, -45740.21, -35870.04, -18148.63, 31309.09, -37267.24, -25933.16, -44881.56, -22811.09, -7635.91, -90829.59, -0.020, -0.304, 0.972, 19:25:43.535, 1579559143535
115, 17844.07, 109612.59, -25348.44, 116933.75, 24583.97, -37495.83, -53067.98, -35849.13, -10003.23, 29721.56, -31921.67, -17315.83, -37053.02, -14551.68, 1637.69, 93103.66, 0.000, 0.000, 0.000, 19:25:43.537, 1579559143537
116, 10652.30, 101087.30, -18136.70, 126162.34, 31700.85, -23805.97, -42919.59, -30686.22, -9402.28, 30484.09, -29938.39, -20078.41, -37658.02, -15644.41, 823.71, 91651.67, 0.000, 0.000, 0.000, 19:25:43.537, 1579559143537
117, 25724.69, 111822.63, -27444.07, 114001.31, 23076.16, -39405.39, -52028.49, -39751.37, -18036.20, 31067.16, -38457.67, -24131.88, -44534.04, -22065.26, -6996.79, -89649.11, 0.000, 0.000, 0.000, 19:25:43.989, 1579559143989
118, 9086.65, 100533.20, -16907.60, 124424.94, 30829.56, -25748.67, -46105.55, -29794.16, -4812.26, 29281.14, -27303.06, -15438.24, -33409.62, -11106.65, 5952.72, 187132.75, 0.000, 0.000, 0.000, 19:25:43.989, 1579559143989
119, 20461.93, 106362.52, -20002.33, 120416.02, 30133.12, -27653.31, -44644.84, -35528.75, -16970.38, 31418.39, -36816.72, -25558.21, -44424.43, -22244.90, -7049.99, -90834.80, -0.026, -0.298, 0.968, 19:25:43.990, 1579559143990
120, 18278.65, 106814.73, -21099.46, 116958.74, 29476.81, -32089.30, -51543.79, -35242.82, -8672.37, 29797.80, -31367.86, -16752.25, -36377.64, -13795.92, 2354.06, 93263.23, 0.000, 0.000, 0.000, 19:25:43.990, 1579559143990
121, 11098.09, 98448.30, -13926.97, 125998.41, 36588.08, -16828.14, -41153.20, -29801.00, -7901.97, 30614.54, -29309.17, -19636.72, -36837.02, -14748.24, 1651.08, 92560.74, 0.000, 0.000, 0.000, 19:25:43.990, 1579559143990
122, 26015.66, 109192.29, -22931.95, 114122.88, 29857.73, -31300.76, -49981.47, -38885.73, -16511.68, 31148.34, -37883.64, -23708.12, -43667.98, -21119.94, -6164.83, -88728.82, 0.000, 0.000, 0.000, 19:25:43.990, 1579559143990
123, 9397.39, 97277.96, -13573.74, 124306.36, 37260.49, -17167.50, -44095.95, -28988.83, -3462.64, 29371.78, -26994.58, -15295.79, -32750.96, -10359.16, 6540.25, 187436.00, 0.000, 0.000, 0.000, 19:25:43.991, 1579559143991
124, 20680.59, 102119.08, -17810.00, 119708.43, 35516.68, -20197.57, -42761.75, -34808.19, -15766.56, 31465.15, -36704.74, -25592.50, -43950.86, -21675.58, -6678.21, -88957.48, -0.018, -0.298, 0.972, 19:25:43.991, 1579559143991
125, 18600.03, 101017.27, -20320.75, 115195.19, 33627.77, -26876.77, -50052.50, -34913.13, -7885.36, 29750.53, -31695.69, -17047.25, -36317.43, -13639.79, 2280.55, 93223.98, 0.000, 0.000, 0.000, 19:25:43.991, 1579559143991
126, 11334.39, 92859.94, -14092.46, 123362.11, 38986.38, -14022.23, -40083.00, -29679.29, -7255.71, 30615.79, -29785.06, -19865.85, -36903.49, -14729.11, 1426.49, 93219.91, 0.000, 0.000, 0.000, 19:25:43.992, 1579559143992
127, 26080.55, 104445.56, -23531.63, 111233.97, 32756.48, -30206.50, -48995.54, -38731.79, -15883.28, 31224.40, -38341.91, -23764.11, -43772.47, -21159.70, -6427.31, -88965.21, 0.000, 0.000, 0.000, 19:25:43.992, 1579559143992
0, 9441.91, 92765.21, -14048.58, 121437.72, 39312.36, -17156.24, -43267.34, -28955.12, -2834.13, 29378.91, -27423.22, -15304.73, -32861.76, -10393.92, 6313.29, 187500.00, -0.018, -0.304, 0.970, 19:25:43.992, 1579559143992
1, 20579.76, 99213.47, -17814.88, 117328.84, 37611.91, -20067.73, -41886.83, -34686.55, -14868.16, 31505.77, -36792.58, -25351.01, -43813.62, -21450.23, -6572.60, -88230.52, 0.000, 0.000, 0.000, 19:25:43.993, 1579559143993
2, 18462.79, 100402.34, -19331.62, 114091.05, 36942.98, -25103.40, -48873.03, -34538.76, -6804.83, 29676.54, -31541.71, -16853.15, -36021.27, -13229.84, 2622.28, 93781.57, 0.000, 0.000, 0.000, 19:25:43.993, 1579559143993
3, 11236.69, 92620.77, -12913.83, 123021.85, 42206.75, -10819.83, -38779.79, -29308.72, -6022.57, 30568.67, -29457.65, -19738.40, -36528.14, -14206.19, 1886.46, 94403.82, 0.000, 0.000, 0.000, 19:25:43.993, 1579559143993
4, 25992.71, 104486.34, -22340.88, 111409.05, 36636.36, -26217.92, -47556.13, -38234.07, -14657.38, 31245.08, -38015.29, -23675.66, -43435.59, -20644.70, -5956.36, -87996.78, 0.000, 0.000, 0.000, 19:25:43.994, 1579559143994
5, 9484.20, 92745.77, -13758.30, 121851.52, 42598.24, -13508.28, -41869.18, -28560.95, -1738.05, 29336.08, -27277.24, -15382.22, -32717.12, -10046.95, 6634.06, 187500.00, -0.014, -0.302, 0.964, 19:25:43.999, 1579559143999
6, 20559.07, 99059.35, -18351.16, 117619.28, 40496.75, -17552.42, -40145.34, -34385.41, -13745.52, 31565.02, -36662.70, -25376.74, -43691.45, -21106.55, -6285.91, -86819.02, 0.000, 0.000, 0.000, 19:25:44.000, 1579559144000
7, 18599.38, 100129.91, -20241.76, 114130.88, 39492.74, -23970.70, -47289.00, -34421.24, -5938.63, 29680.41, -31729.42, -16914.99, -36146.21, -13130.71, 2678.36, 93370.85, 0.000, 0.000, 0.000, 19:25:44.004, 1579559144004
8, 11353.61, 92161.56, -14338.53, 122985.91, 43631.61, -10874.01, -37575.58, -29300.48, -5214.95, 30564.80, -29754.93, -19679.23, -36693.29, -14145.75, 1949.81, 94952.91, 0.000, 0.000, 0.000, 19:25:44.004, 1579559144004
9, 26104.67, 103754.72, -23586.48, 111376.50, 38123.63, -26846.12, -46483.38, -38247.07, -13901.42, 31211.37, -38365.65, -23440.54, -43625.26, -20618.01, -5880.81, -87359.78, 0.000, 0.000, 0.000, 19:25:44.004, 1579559144004
10, 9657.76, 91777.13, -14950.17, 121808.58, 43466.68, -14375.52, -41022.76, -28661.64, -1046.22, 29304.68, -27707.29, -15181.21, -32970.23, -10103.59, 6732.52, 187500.00, -0.016, -0.298, 0.966, 19:25:44.005, 1579559144005
11, 20682.74, 97986.36, -19513.83, 117348.17, 41226.00, -18400.65, -39768.11, -34409.59, -13026.73, 31612.56, -37041.24, -25066.52, -43880.41, -21110.46, -6133.30, -85490.75, 0.000, 0.000, 0.000, 19:25:44.005, 1579559144005
12, 18726.80, 98911.65, -21000.31, 113925.61, 40629.26, -24291.74, -46925.03, -34386.97, -5140.28, 29667.47, -32012.30, -16502.76, -36259.29, -13067.46, 3034.32, 93571.26, 0.000, 0.000, 0.000, 19:25:44.005, 1579559144005
13, 11405.22, 90766.45, -14832.93, 122797.38, 44602.91, -10533.66, -36984.31, -29191.36, -4328.21, 30584.58, -29932.36, -19320.13, -36719.89, -14007.03, 2360.95, 95918.64, 0.000, 0.000, 0.000, 19:25:44.006, 1579559144006
14, 26080.82, 102513.95, -23765.34, 110919.73, 39875.71, -25745.14, -45704.93, -38089.63, -12978.79, 31292.17, -38463.35, -23094.92, -43598.62, -20434.01, -5440.28, -87791.41, 0.000, 0.000, 0.000, 19:25:44.006, 1579559144006
15, 9596.61, 90856.28, -14790.39, 121508.17, 45456.29, -12428.26, -40100.59, -28379.41, -91.06, 29339.46, -27744.08, -14824.97, -32877.36, -9851.91, 7241.99, 187500.00, -0.014, -0.304, 0.966, 19:25:44.006, 1579559144006
16, 20484.61, 97669.90, -18949.07, 117170.61, 43347.79, -16143.35, -38748.11, -34111.44, -11982.66, 31654.45, -36957.00, -24697.54, -43674.43, -20757.46, -5493.75, -84925.34, 0.000, 0.000, 0.000, 19:25:44.007, 1579559144007
17, 18513.68, 99100.77, -20275.56, 114099.28, 42983.14, -21745.92, -45783.23, -34076.91, -4135.56, 29726.46, -31941.85, -16191.65, -36069.79, -12738.04, 3635.65, 93929.54, 0.000, 0.000, 0.000, 19:25:44.007, 1579559144007
18, 11177.21, 90470.05, -13918.50, 123050.62, 46648.94, -8129.42, -35874.44, -28874.43, -3320.06, 30689.55, -29842.91, -19044.74, -36516.42, -13672.72, 2990.71, 96730.16, 0.000, 0.000, 0.000, 19:25:44.007, 1579559144007
19, 25826.37, 101683.05, -22831.88, 111128.91, 42000.71, -23567.72, -44572.44, -37804.60, -12045.02, 31378.74, -38394.08, -22881.32, -43418.66, -20132.30, -4830.50, -87338.14, 0.000, 0.000, 0.000, 19:25:44.007, 1579559144007
20, 9382.75, 90347.23, -13889.91, 121765.37, 47389.23, -10293.11, -39017.88, -28099.49, 765.32, 29448.42, -27725.77, -14656.84, -32742.98, -9604.28, 7812.74, 187500.00, -0.016, -0.306, 0.964, 19:25:44.008, 1579559144008
21, 20227.14, 95989.81, -18124.52, 117466.75, 45260.65, -13938.14, -37462.42, -33792.75, -11140.00, 31802.57, -36913.26, -24487.18, -43538.40, -20517.72, -4952.10, -84119.40, 0.000, 0.000, 0.000, 19:25:44.008, 1579559144008
22, 18310.68, 96782.16, -19599.62, 114297.25, 45246.37, -19034.99, -44283.52, -33721.83, -3308.93, 29865.55, -31877.30, -15927.76, -35926.61, -12502.18, 4172.71, 93286.48, 0.000, 0.000, 0.000, 19:25:44.008, 1579559144008
23, 10958.14, 89146.40, -13673.84, 123313.25, 48149.10, -5225.57, -34438.61, -28422.32, -2516.07, 30772.43, -29750.53, -18850.54, -36376.03, -13437.82, 3550.71, 96955.54, 0.000, 0.000, 0.000, 19:25:44.009, 1579559144009
24, 25618.74, 101496.97, -22764.47, 111716.14, 41734.97, -20704.17, -43169.33, -37419.01, -11199.74, 31444.52, -38188.91, -22639.90, -43222.64, -19848.57, -4179.13, -86865.91, 0.000, 0.000, 0.000, 19:25:44.009, 1579559144009
25, 9176.40, 92134.49, -14349.08, 122735.75, 47040.12, -7504.31, -37632.56, -27747.21, 1610.93, 29476.29, -27493.03, -14577.61, -32559.05, -9342.72, 8462.30, 187500.00, -0.020, -0.306, 0.964, 19:25:44.009, 1579559144009
26, 20102.58, 99455.67, -19270.78, 118745.78, 43263.72, -12102.96, -36480.19, -33678.73, -10314.64, 31852.73, -36660.30, -24499.61, -43358.89, -20266.75, -4280.58, -83018.51, 0.000, 0.000, 0.000, 19:25:44.010, 1579559144010
27, 18159.63, 103741.73, -20392.66, 116253.88, 42008.25, -18055.58, -43476.24, -33743.54, -2366.20, 29926.71, -31490.46, -15840.93, -35641.89, -12146.29, 4950.87, 93652.64, 0.000, 0.000, 0.000, 19:25:44.010, 1579559144010
28, 10873.88, 96126.49, -14845.09, 126006.59, 45725.75, -5071.79, -33743.27, -28598.88, -1645.33, 30798.20, -29423.12, -18933.16, -36137.20, -13142.02, 4266.77, 97647.23, 0.000, 0.000, 0.000, 19:25:44.010, 1579559144010
29, 25555.96, 107566.36, -23549.24, 114596.48, 40259.74, -21013.46, -42506.63, -37771.25, -10356.10, 31437.37, -37880.15, -22778.93, -43003.19, -19576.19, -3534.26, -87211.56, 0.000, 0.000, 0.000, 19:25:44.010, 1579559144010
30, 9186.61, 97903.25, -14474.34, 125574.09, 45847.18, -8028.23, -36970.21, -28102.15, 2452.12, 29467.55, -27185.06, -14405.07, -32304.26, -9039.13, 9058.83, 187500.00, -0.016, -0.310, 0.962, 19:25:44.011, 1579559144011
31, 20285.15, 102768.45, -18297.94, 121256.24, 43242.76, -12722.17, -35836.95, -33955.59, -9600.63, 31778.37, -36436.65, -24463.13, -43171.07, -20036.91, -3793.60, -82944.93, 0.000, 0.000, 0.000, 19:25:44.011, 1579559144011
32, 18573.94, 104613.24, -18429.77, 117815.70, 42606.80, -19192.12, -43034.17, -34271.44, -1795.31, 29829.07, -31393.16, -15832.48, -35563.90, -12032.77, 5260.44, 92894.31, 0.000, 0.000, 0.000, 19:25:44.011, 1579559144011
33, 11226.45, 96207.34, -10061.75, 126755.69, 45966.43, -6673.34, -33273.25, -28991.82, -1078.11, 30782.58, -29337.58, -18690.51, -36004.70, -12976.86, 4587.76, 97822.20, 0.000, 0.000, 0.000, 19:25:44.012, 1579559144012
34, 25930.73, 106498.02, -17011.17, 114547.32, 40895.18, -23403.44, -42121.73, -38277.14, -9901.98, 31420.67, -37898.32, -22703.72, -42953.79, -19499.26, -3321.85, -86993.16, 0.000, 0.000, 0.000, 19:25:44.012, 1579559144012
35, 9503.09, 95715.66, -5353.24, 124864.35, 45908.96, -11417.52, -36638.71, -28630.48, 2972.78, 29491.67, -27149.10, -14345.97, -32198.04, -8910.97, 9390.46, 187500.00, -0.018, -0.304, 0.966, 19:25:44.012, 1579559144012
36, 20294.31, 100514.90, -5659.13, 120193.10, 42836.63, -16315.36, -35423.73, -34437.78, -9053.98, 31799.89, -36356.63, -24438.68, -43001.87, -19844.91, -3388.39, -82023.39, 0.000, 0.000, 0.000, 19:25:44.012, 1579559144012
37, 18565.40, 102214.37, -4951.94, 116425.02, 42094.59, -22994.31, -42686.93, -34784.81, -1335.07, 29785.80, -31362.98, -15953.56, -35440.99, -11883.93, 5618.36, 92982.92, 0.000, 0.000, 0.000, 19:25:44.013, 1579559144013
38, 11054.46, 93877.66, 5388.27, 125355.42, 45181.48, -9868.63, -32880.87, -29360.00, -529.89, 30723.01, -29181.05, -18828.80, -35759.88, -12707.06, 5114.32, 98464.52, 0.000, 0.000, 0.000, 19:25:44.013, 1579559144013
39, 25659.71, 104954.02, -1716.61, 113571.65, 40771.12, -25383.58, -41527.39, -38433.91, -9250.29, 31423.94, -37602.79, -22741.80, -42563.69, -19090.24, -2628.56, -88046.09, 0.000, 0.000, 0.000, 19:25:44.013, 1579559144013
40, 9344.73, 94504.06, 11086.42, 124758.41, 46467.93, -10527.81, -35817.46, -28466.42, 3799.68, 29464.27, -26633.49, -14378.30, -31543.88, -8221.24, 10378.52, 187500.00, -0.018, -0.300, 0.966, 19:25:44.014, 1579559144014
41, 20113.51, 99417.90, 11421.90, 120618.99, 44479.79, -13137.26, -34287.38, -33994.79, -8104.81, 31805.28, -35722.24, -24517.18, -42226.82, -19030.07, -2241.92, -81963.48, 0.000, 0.000, 0.000, 19:25:44.014, 1579559144014
42, 18555.43, 101504.19, 11163.02, 117211.83, 44417.54, -18403.71, -41359.96, -34219.07, -292.34, 29866.71, -30663.87, -16044.01, -34594.24, -11000.88, 6861.67, 93369.11, 0.000, 0.000, 0.000, 19:25:44.014, 1579559144014
43, 11358.53, 93565.00, 21220.01, 126307.98, 47398.82, -4744.69, -31452.84, -28786.05, 625.00, 30810.96, -28405.47, -19024.93, -34841.92, -11743.00, 6452.73, 99330.57, 0.000, 0.000, 0.000, 19:25:44.015, 1579559144015
44, 26154.51, 104376.30, 14231.47, 114651.39, 43061.26, -19885.94, -40006.13, -37836.09, -8153.58, 31522.53, -36904.96, -23100.46, -41731.20, -18203.13, -1344.57, -87336.40, 0.000, 0.000, 0.000, 19:25:44.015, 1579559144015
45, 10040.02, 94300.87, 25676.90, 125516.95, 48545.64, -5764.22, -34394.24, -27989.90, 4741.23, 29581.39, -26120.56, -14862.75, -30879.94, -7496.86, 11475.83, 187500.00, -0.016, -0.302, 0.958, 19:25:44.015, 1579559144015
46, 20857.73, 99192.30, 25256.13, 121279.91, 46190.66, -9483.42, -33021.39, -33523.77, -7115.72, 31949.16, -35174.29, -24836.95, -41525.45, -18274.23, -1044.70, -81011.99, 0.000, 0.000, 0.000, 19:25:44.015, 1579559144015
47, 19311.19, 102298.25, 24641.93, 118235.38, 46572.74, -14113.07, -40049.14, -33563.47, 682.33, 30016.83, -30113.70, -16361.21, -33879.23, -10215.33, 8083.89, 92548.84, 0.000, 0.000, 0.000, 19:25:44.016, 1579559144016
48, 12010.40, 93756.89, 34449.78, 127533.53, 49455.60, -288.52, -30094.28, -28176.56, 1484.25, 30954.13, -27971.93, -19369.55, -34223.34, -11046.30, 7621.56, 99312.95, 0.000, 0.000, 0.000, 19:25:44.016, 1579559144016
49, 26769.14, 103965.73, 26188.60, 115630.73, 45073.97, -15795.84, -38789.53, -37243.55, -7365.79, 31640.57, -36560.79, -23365.51, -41191.29, -17585.84, -249.74, -87171.84, 0.000, 0.000, 0.000, 19:25:44.469, 1579559144469
50, 10554.94, 93949.05, 35818.67, 126210.53, 50249.38, -2248.41, -33255.41, -27486.61, 5406.80, 29733.12, -25932.67, -15155.49, -30489.30, -7020.33, 12390.40, 187500.00, -0.020, -0.300, 0.966, 19:25:44.470, 1579559144470
51, 21331.97, 98082.54, 33438.77, 121550.73, 47533.02, -6975.67, -31998.44, -33207.74, -6604.07, 32100.03, -35152.16, -25154.32, -41300.48, -17965.91, -345.98, -79789.20, 0.000, 0.000, 0.000, 19:25:44.470, 1579559144470
52, 19813.61, 99985.85, 30725.76, 117799.05, 47706.58, -12857.19, -39332.45, -33439.41, 928.54, 30141.77, -30344.97, -16682.54, -33889.13, -10137.30, 8468.16, 92717.09, 0.000, 0.000, 0.000, 19:25:44.470, 1579559144470
53, 12212.77, 91323.10, 39129.81, 126558.52, 50358.61, 143.32, -29520.02, -27966.55, 1743.37, 31066.53, -28201.26, -19537.88, -34223.11, -10962.35, 7947.92, 100408.75, 0.000, 0.000, 0.000, 19:25:44.470, 1579559144470
54, 26854.37, 102270.16, 30147.81, 114598.30, 45816.94, -15795.28, -38271.95, -37134.67, -7269.12, 31777.92, -36926.73, -23576.96, -41350.17, -17665.39, -165.81, -87512.80, 0.000, 0.000, 0.000, 19:25:44.470, 1579559144470
55, 10579.17, 90038.99, 39008.80, 124650.76, 50704.48, -2705.77, -32985.43, -27465.69, 5385.14, 29830.93, -26392.31, -15309.67, -30748.42, -7198.02, 12295.47, 187500.00, -0.020, -0.308, 0.970, 19:25:44.471, 1579559144471
56, 21047.23, 94969.54, 36168.00, 119781.81, 47925.02, -7434.37, -31748.73, -33129.87, -6581.60, 32146.28, -35547.57, -25323.43, -41529.20, -18122.06, -450.99, -79496.63, 0.000, 0.000, 0.000, 19:25:44.471, 1579559144471
57, 19279.29, 97103.75, 33006.55, 116048.27, 47961.10, -13351.84, -39152.01, -33538.52, 869.68, 30215.24, -30795.81, -16906.43, -34205.77, -10385.25, 8245.25, 92165.52, 0.000, 0.000, 0.000, 19:25:44.471, 1579559144471
58, 11239.51, 88688.55, 40932.75, 124829.59, 50485.61, -268.24, -29379.51, -27893.97, 1746.50, 31157.62, -28582.74, -19719.98, -34490.35, -11167.74, 7763.36, 100714.63, 0.000, 0.000, 0.000, 19:25:44.471, 1579559144471
59, 25555.60, 100084.41, 31567.52, 113078.48, 46314.58, -15932.01, -38086.88, -37152.53, -7248.98, 31844.60, -37270.97, -24122.65, -41602.59, -17861.70, -327.88, -87916.29, 0.000, 0.000, 0.000, 19:25:44.471, 1579559144471
60, 9205.86, 89211.58, 40298.43, 123520.95, 51372.98, -2373.22, -32723.56, -27473.04, 5580.29, 29954.13, -26579.80, -15982.66, -30843.93, -7234.86, 12327.66, 187500.00, -0.022, -0.302, 0.966, 19:25:44.471, 1579559144471
61, 19713.72, 94746.80, 37554.80, 119131.75, 48812.30, -6616.94, -31350.24, -33027.12, -6280.04, 32302.90, -35647.54, -26315.76, -41536.29, -18073.55, -292.23, -78669.31, 0.000, 0.000, 0.000, 19:25:44.473, 1579559144473
62, 18212.13, 97997.20, 34479.84, 115987.58, 49228.57, -11789.85, -38629.69, -33479.45, 1286.05, 30366.23, -30828.69, -18188.53, -34126.66, -10246.38, 8547.96, 92375.78, 0.000, 0.000, 0.000, 19:25:44.476, 1579559144476
63, 10416.34, 89795.85, 42631.44, 125322.77, 51803.81, 1746.05, -28743.31, -27898.82, 2264.05, 31445.75, -28564.63, -20934.38, -34333.66, -10954.01, 8175.96, 101509.53, 0.000, 0.000, 0.000, 19:25:44.477, 1579559144477
64, 24962.49, 101111.27, 33543.89, 113914.48, 48023.13, -13328.79, -37383.07, -37023.00, -6686.77, 32110.83, -37228.71, -25378.64, -41417.45, -17616.10, 136.32, -87615.55, 0.000, 0.000, 0.000, 19:25:44.477, 1579559144477
65, 8566.48, 91301.22, 42541.67, 124906.39, 53288.59, 1032.23, -31903.27, -27260.75, 6171.54, 30185.67, -26548.17, -16914.06, -30663.13, -6988.05, 12831.89, 187500.00, -0.020, -0.306, 0.966, 19:25:44.477, 1579559144477
66, 18911.12, 95658.04, 39747.48, 120601.67, 50565.68, -3320.22, -30541.27, -32805.83, -5712.26, 32541.46, -35654.79, -26971.25, -41370.15, -17852.49, 172.15, -78022.98, 0.000, 0.000, 0.000, 19:25:44.477, 1579559144477
67, 17463.04, 97877.70, 36451.20, 117161.38, 50998.97, -8613.45, -37889.43, -33306.56, 1759.48, 30540.66, -30938.57, -18769.21, -34063.10, -10131.33, 8915.13, 92040.08, 0.000, 0.000, 0.000, 19:25:44.477, 1579559144477
68, 9655.28, 88793.71, 44242.39, 126054.27, 53185.08, 4467.38, -28084.81, -27736.70, 2648.17, 31530.98, -28774.54, -21432.95, -34353.58, -10926.20, 8459.58, 101782.87, 0.000, 0.000, 0.000, 19:25:44.477, 1579559144477
69, 24246.12, 99254.55, 34438.27, 113954.82, 49167.38, -11498.81, -36844.14, -36926.27, -6367.83, 32172.54, -37494.22, -25697.89, -41509.87, -17671.60, 353.60, -86471.77, 0.000, 0.000, 0.000, 19:25:44.477, 1579559144477
70, 7930.42, 88626.09, 42735.57, 124313.60, 53915.20, 1730.43, -31511.18, -27267.32, 6344.65, 30258.25, -26952.52, -17406.33, -30890.13, -7199.18, 12901.94, 187500.00, -0.026, -0.304, 0.968, 19:25:44.478, 1579559144478
71, 18320.81, 93480.78, 39464.53, 119520.79, 51046.82, -3335.46, -30188.76, -32815.89, -5522.58, 32566.07, -36016.93, -27310.68, -41562.00, -18033.81, 244.86, -76914.23, 0.000, 0.000, 0.000, 19:25:44.478, 1579559144478
72, 16970.83, 96093.09, 35998.02, 116096.50, 51760.60, -9038.22, -37211.85, -33313.22, 1949.32, 30484.74, -31294.45, -19093.31, -34262.43, -10321.30, 9019.17, 92386.24, 0.000, 0.000, 0.000, 19:25:44.478, 1579559144478
73, 9292.40, 87998.66, 43677.12, 125199.91, 54173.27, 3806.30, -27475.66, -27793.83, 2852.02, 31379.23, -29090.04, -21775.56, -34514.40, -11084.41, 8600.01, 102157.13, 0.000, 0.000, 0.000, 19:25:44.478, 1579559144478
74, 24029.82, 99787.26, 34281.76, 113573.26, 49813.52, -11836.92, -36128.04, -36833.55, -5953.74, 31976.72, -37581.60, -25886.72, -41461.79, -17626.54, 733.92, -87343.41, 0.000, 0.000, 0.000, 19:25:44.478, 1579559144478
75, 8051.05, 90516.29, 43990.96, 125127.38, 57789.16, 2794.39, -30562.77, -26951.49, 7046.81, 30016.04, -26738.99, -17498.98, -30496.54, -6811.07, 13722.41, 187500.00, -0.022, -0.304, 0.970, 19:25:44.478, 1579559144478
76, 19141.01, 97006.21, 41854.96, 121362.26, 54566.69, -1219.91, -29076.33, -32482.11, -4680.92, 32366.76, -35667.93, -27466.52, -41051.79, -17517.84, 1309.63, -76766.75, 0.000, 0.000, 0.000, 19:25:44.479, 1579559144479
77, 18846.52, 101257.09, 39788.16, 119162.89, 54503.63, -5141.77, -36131.91, -32691.64, 3158.55, 30441.29, -30541.47, -19045.72, -33327.79, -9408.59, 10557.49, 92482.13, 0.000, 0.000, 0.000, 19:25:44.479, 1579559144479
78, 11752.39, 96042.47, 49002.06, 129622.10, 59176.75, 9127.96, -25984.51, -27074.38, 4310.94, 31415.98, -28106.78, -21657.28, -33290.96, -9938.23, 10496.33, 102748.24, 0.000, 0.000, 0.000, 19:25:44.479, 1579559144479
79, 26928.46, 109978.78, 40064.41, 119166.60, 49043.32, -5711.79, -34548.15, -36073.01, -4687.16, 32113.17, -36780.38, -26108.89, -40432.85, -16687.41, 2524.70, -87570.78, 0.000, 0.000, 0.000, 19:25:44.479, 1579559144479
80, 10802.96, 101559.46, 48804.90, 131129.44, 57058.59, 8278.26, -29073.70, -26225.84, 8265.74, 30166.70, -25953.41, -17717.22, -29463.85, -5925.20, 15495.55, 187500.00, -0.014, -0.306, 0.968, 19:25:44.479, 1579559144479
81, 21216.39, 107088.97, 45275.63, 127328.32, 51068.75, 2953.09, -27878.08, -32059.44, -3970.25, 32513.32, -35374.45, -28049.99, -40534.02, -17175.95, 2568.91, -77786.35, 0.000, 0.000, 0.000, 19:25:44.479, 1579559144479
82, 20042.81, 107286.49, 41409.04, 124053.38, 46433.09, -2438.80, -35582.03, -32382.18, 3547.18, 30522.07, -30456.29, -19790.10, -33095.24, -9386.73, 11558.29, 91297.80, 0.000, 0.000, 0.000, 19:25:44.479, 1579559144479
83, 12119.45, 96738.99, 49027.79, 133183.98, 56683.93, 10784.85, -25633.18, -26854.10, 4534.54, 31485.96, -28085.35, -22463.48, -33181.45, -10083.05, 11377.22, 102505.70, 0.000, 0.000, 0.000, 19:25:44.480, 1579559144480
84, 27075.70, 108955.09, 38718.59, 121049.60, 43850.12, -4663.87, -34364.04, -35942.97, -4709.11, 32192.61, -36885.07, -27054.06, -40510.79, -17047.92, 3162.28, -88640.94, 0.000, 0.000, 0.000, 19:25:44.480, 1579559144480
85, 10654.54, 98880.13, 46983.75, 132283.45, 55546.12, 10045.21, -28676.10, -25863.74, 8555.46, 30248.86, -25638.59, -18362.72, -29138.31, -5916.80, 16504.75, 187500.00, -0.018, -0.304, 0.962, 19:25:44.480, 1579559144480
86, 21137.11, 104962.27, 42411.09, 128038.66, 54775.36, 5375.01, -27104.71, -31554.63, -3714.52, 32571.21, -35109.09, -28803.78, -40235.60, -17212.63, 3492.91, -77961.66, 0.000, 0.000, 0.000, 19:25:44.480, 1579559144480
87, 19889.99, 106815.81, 36873.05, 124260.97, 46581.59, -491.47, -34931.98, -31813.57, 3753.08, 30594.44, -30322.53, -20499.79, -32842.80, -9436.12, 12361.92, 90469.42, 0.000, 0.000, 0.000, 19:25:44.480, 1579559144480
88, 11772.51, 99075.69, 42958.96, 133454.48, 60257.71, 11727.58, -24913.25, -26237.66, 4797.76, 31562.54, -28046.10, -23093.75, -32923.71, -10085.13, 12146.27, 102167.77, 0.000, 0.000, 0.000, 19:25:44.480, 1579559144480
89, 26557.22, 112519.77, 31229.99, 121369.77, 45107.83, -5399.15, -33967.39, -35552.91, -4655.78, 32230.23, -37207.59, -27609.07, -40517.00, -17254.94, 3641.99, -88728.42, 0.000, 0.000, 0.000, 19:25:44.481, 1579559144481
90, 9791.61, 104426.56, 38100.38, 132834.30, 54525.74, 7703.04, -28710.79, -25634.52, 8477.97, 30272.38, -26238.15, -18872.47, -29346.59, -6269.24, 16807.10, 187500.00, -0.016, -0.306, 0.960, 19:25:44.481, 1579559144481
91, 19223.60, 108813.32, 32563.70, 128781.23, 53215.52, 2370.85, -27454.49, -31515.40, -3872.35, 32641.30, -35963.55, -29137.31, -40587.48, -17668.23, 3694.68, -77349.88, 0.000, 0.000, 0.000, 19:25:44.481, 1579559144481
92, 17659.35, 113270.88, 27218.81, 125261.54, 43893.13, -3854.00, -35339.47, -31872.38, 3642.22, 30513.57, -31254.91, -20565.57, -33163.82, -9812.19, 12627.33, 90244.05, 0.000, 0.000, 0.000, 19:25:44.481, 1579559144481
93, 9237.98, 106316.63, 32911.13, 135393.59, 57442.91, 8939.45, -25321.96, -26372.93, 4711.55, 31533.97, -29152.04, -23092.97, -33281.81, -10437.95, 12425.09, 102590.48, 0.000, 0.000, 0.000, 19:25:44.481, 1579559144481
94, 24343.78, 117615.34, 21717.40, 123466.36, 42382.32, -8006.73, -34386.86, -35736.84, -4987.93, 32345.12, -38905.71, -27617.81, -41189.66, -17861.05, 3616.13, -89992.26, 0.000, 0.000, 0.000, 19:25:44.481, 1579559144481
95, 7870.32, 104730.59, 29521.65, 133796.00, 50785.02, 4304.97, -29524.66, -26041.93, 8012.00, 30254.85, -28435.44, -18786.35, -30219.87, -6972.40, 16648.99, 187341.36, -0.016, -0.304, 0.958, 19:25:44.481, 1579559144481
96, 18336.03, 109191.91, 25234.13, 128970.03, 49561.01, -1295.02, -28264.18, -31893.23, -4309.91, 32771.70, -38669.39, -28877.02, -41553.10, -18350.22, 3478.24, -78045.67, 0.000, 0.000, 0.000, 19:25:44.482, 1579559144482
97, 17191.53, 110744.80, 21548.47, 124478.11, 41197.91, -8403.58, -36346.10, -32478.76, 2919.05, 30570.59, -34983.63, -20289.57, -34532.89, -10770.25, 12063.35, 89393.98, 0.000, 0.000, 0.000, 19:25:44.482, 1579559144482
98, 8987.26, 101640.09, 28730.44, 133472.91, 53436.98, 4266.21, -26523.88, -27018.59, 3957.02, 31590.14, -33747.29, -22783.94, -34853.97, -11458.69, 11754.36, 102597.59, 0.000, 0.000, 0.000, 19:25:44.482, 1579559144482
99, 24082.21, 112950.98, 18451.41, 120951.09, 39584.13, -12452.78, -35598.28, -36394.23, -5743.12, 32201.24, -44555.41, -27140.87, -42948.41, -18900.05, 2887.02, -90201.06, 0.000, 0.000, 0.000, 19:25:44.482, 1579559144482
100, 7608.98, 101156.33, 26602.46, 131010.59, 48397.65, 116.39, -30794.71, -26792.81, 7188.54, 30073.56, -35201.71, -18364.42, -32216.93, -8120.59, 15772.91, 187287.09, -0.016, -0.300, 0.960, 19:25:44.482, 1579559144482
101, 17978.04, 106423.60, 22436.50, 126328.28, 46383.00, -4936.45, -29581.86, -32595.14, -5135.98, 32548.30, -46308.66, -28406.83, -43677.88, -19520.16, 2607.44, -77800.23, 0.000, 0.000, 0.000, 19:25:44.482, 1579559144482
102, 16824.29, 108101.88, 18707.78, 122027.34, 39285.80, -11830.91, -37677.84, -33275.22, 1917.22, 30318.84, -43485.43, -19827.85, -36896.83, -12099.16, 11054.66, 88959.83, 0.000, 0.000, 0.000, 19:25:44.483, 1579559144483
